LabVIEW Measurement	
Writer_Version	2
Reader_Version	2
Separator	Tab
Decimal_Separator	.
Multi_Headings	Yes
X_Columns	One
Time_Pref	Relative
Operator	e014
Description	Hysteresis Loop Data
Date	2015/08/26
Time	15:51:41.175899505615234375
***End_of_Header***	
	
Channels	2		
Samples	1000	1000	
Date	2015/08/26	2015/08/26	
Time	15:51:41.175899505615234375	15:51:41.175899505615234375	
Y_Unit_Label	V	V	
X_Dimension	Time	Time	
X0	0.0000000000000000E+0	0.0000000000000000E+0	
Delta_X	1.000000E-5	1.000000E-5	
***End_of_Header***			
X_Value	Applied Voltage	Sense Voltage	Comment
0.000000	-23.201730	-6.034586
1.000000E-5	-23.089041	-6.028668
2.000000E-5	-22.984857	-6.014530
3.000000E-5	-22.865789	-6.014859
4.000000E-5	-22.746722	-6.015516
5.000000E-5	-22.636159	-6.013872
6.000000E-5	-22.497955	-6.012557
7.000000E-5	-22.381014	-6.010913
8.000000E-5	-22.259820	-6.009598
9.000000E-5	-22.147131	-6.006968
1.000000E-4	-22.038694	-6.004337
0.000110	-21.930257	-6.002036
0.000120	-21.834578	-6.000063
0.000130	-21.741025	-5.999734
0.000140	-21.653850	-6.001049
0.000150	-21.566676	-6.002036
0.000160	-21.475249	-6.002365
0.000170	-21.388074	-6.003351
0.000180	-21.300900	-6.006310
0.000190	-21.198842	-6.008940
0.000200	-21.107415	-6.013872
0.000210	-20.994726	-6.001378
0.000220	-20.886289	-5.989213
0.000230	-20.794862	-5.987898
0.000240	-20.677920	-5.986254
0.000250	-20.550348	-5.984281
0.000260	-20.433407	-5.981979
0.000270	-20.307960	-5.979020
0.000280	-20.182514	-5.976061
0.000290	-20.067699	-5.973760
0.000300	-19.955010	-5.970800
0.000310	-19.848699	-5.966855
0.000320	-19.744515	-5.963567
0.000330	-19.629700	-5.959950
0.000340	-19.548904	-5.961265
0.000350	-19.468108	-5.959621
0.000360	-19.370303	-5.959621
0.000370	-19.283128	-5.960608
0.000380	-19.198080	-5.961594
0.000390	-19.102400	-5.963238
0.000400	-19.010973	-5.967512
0.000410	-18.908915	-5.968828
0.000420	-18.796226	-5.953046
0.000430	-18.700547	-5.942853
0.000440	-18.594237	-5.942195
0.000450	-18.477295	-5.939565
0.000460	-18.353975	-5.937592
0.000470	-18.226403	-5.934633
0.000480	-18.105209	-5.930688
0.000490	-17.986141	-5.928386
0.000500	-17.869200	-5.925098
0.000510	-17.752259	-5.921153
0.000520	-17.650201	-5.917536
0.000530	-17.548143	-5.914248
0.000540	-17.456716	-5.911946
0.000550	-17.363163	-5.910631
0.000560	-17.271736	-5.909316
0.000570	-17.182435	-5.909974
0.000580	-17.099513	-5.909974
0.000590	-17.012339	-5.910960
0.000600	-16.920912	-5.913919
0.000610	-16.823106	-5.916878
0.000620	-16.716796	-5.913919
0.000630	-16.612612	-5.896822
0.000640	-16.516932	-5.890575
0.000650	-16.399991	-5.889588
0.000660	-16.274545	-5.886301
0.000670	-16.161856	-5.883670
0.000680	-16.036410	-5.880053
0.000690	-15.908837	-5.877094
0.000700	-15.791896	-5.873806
0.000710	-15.674955	-5.869861
0.000720	-15.560140	-5.865915
0.000730	-15.453829	-5.861970
0.000740	-15.353898	-5.858353
0.000750	-15.262471	-5.855723
0.000760	-15.164665	-5.854408
0.000770	-15.079617	-5.853750
0.000780	-14.992442	-5.854079
0.000790	-14.905268	-5.854079
0.000800	-14.811715	-5.854079
0.000810	-14.722414	-5.857367
0.000820	-14.626735	-5.859997
0.000830	-14.518299	-5.845201
0.000840	-14.416241	-5.835995
0.000850	-14.322688	-5.831721
0.000860	-14.207872	-5.829748
0.000870	-14.090931	-5.826789
0.000880	-13.961233	-5.823501
0.000890	-13.844291	-5.819884
0.000900	-13.718845	-5.815939
0.000910	-13.595525	-5.812651
0.000920	-13.480710	-5.808377
0.000930	-13.372274	-5.804102
0.000940	-13.259585	-5.799170
0.000950	-13.163906	-5.794567
0.000960	-13.061848	-5.792923
0.000970	-12.976799	-5.790622
0.000980	-12.885373	-5.788978
0.000990	-12.804577	-5.789964
0.001000	-12.717402	-5.789635
0.001010	-12.625976	-5.789635
0.001020	-12.534549	-5.791937
0.001030	-12.434617	-5.796211
0.001040	-12.326181	-5.787334
0.001050	-12.230501	-5.769250
0.001060	-12.132696	-5.764976
0.001070	-12.009376	-5.762017
0.001080	-11.888182	-5.758071
0.001090	-11.764862	-5.754783
0.001100	-11.641543	-5.750509
0.001110	-11.520349	-5.746235
0.001120	-11.399155	-5.741631
0.001130	-11.282214	-5.738015
0.001140	-11.169525	-5.733412
0.001150	-11.067467	-5.727822
0.001160	-10.973914	-5.723548
0.001170	-10.880361	-5.720260
0.001180	-10.791061	-5.716972
0.001190	-10.703886	-5.716972
0.001200	-10.620964	-5.715986
0.001210	-10.529538	-5.715986
0.001220	-10.442363	-5.716314
0.001230	-10.346684	-5.717630
0.001240	-10.242500	-5.721904
0.001250	-10.142568	-5.698888
0.001260	-10.040510	-5.690669
0.001270	-9.938453	-5.687381
0.001280	-9.813007	-5.683435
0.001290	-9.685434	-5.679161
0.001300	-9.564241	-5.674558
0.001310	-9.447300	-5.669626
0.001320	-9.317601	-5.664365
0.001330	-9.196407	-5.659104
0.001340	-9.085845	-5.654501
0.001350	-8.975282	-5.649569
0.001360	-8.871098	-5.642994
0.001370	-8.773293	-5.639377
0.001380	-8.686118	-5.635102
0.001390	-8.592565	-5.631486
0.001400	-8.505391	-5.629842
0.001410	-8.424595	-5.628855
0.001420	-8.337421	-5.626554
0.001430	-8.241742	-5.626883
0.001440	-8.146063	-5.628527
0.001450	-8.048257	-5.626554
0.001460	-7.946200	-5.604196
0.001470	-7.852647	-5.597620
0.001480	-7.733579	-5.593346
0.001490	-7.623017	-5.588414
0.001500	-7.499697	-5.583153
0.001510	-7.372125	-5.577564
0.001520	-7.255183	-5.572961
0.001530	-7.125485	-5.565727
0.001540	-7.004291	-5.560138
0.001550	-6.891603	-5.554877
0.001560	-6.783166	-5.547972
0.001570	-6.681108	-5.542383
0.001580	-6.564167	-5.534492
0.001590	-6.476993	-5.530217
0.001600	-6.402576	-5.527258
0.001610	-6.311149	-5.524299
0.001620	-6.219722	-5.521340
0.001630	-6.138927	-5.521998
0.001640	-6.043247	-5.518710
0.001650	-5.941190	-5.521011
0.001660	-5.843384	-5.508188
0.001670	-5.749831	-5.489447
0.001680	-5.647774	-5.484515
0.001690	-5.532959	-5.480241
0.001700	-5.409639	-5.472679
0.001710	-5.292698	-5.465774
0.001720	-5.169378	-5.458869
0.001730	-5.037553	-5.451636
0.001740	-4.918486	-5.444731
0.001750	-4.799419	-5.438155
0.001760	-4.688856	-5.430264
0.001770	-4.576167	-5.423031
0.001780	-4.478362	-5.417441
0.001790	-4.382683	-5.407906
0.001800	-4.291256	-5.401659
0.001810	-4.208334	-5.397056
0.001820	-4.121160	-5.392124
0.001830	-4.031860	-5.388836
0.001840	-3.944685	-5.386206
0.001850	-3.855385	-5.383904
0.001860	-3.755453	-5.384891
0.001870	-3.657648	-5.360231
0.001880	-3.568347	-5.349710
0.001890	-3.451406	-5.342476
0.001900	-3.342970	-5.334914
0.001910	-3.211145	-5.326694
0.001920	-3.092078	-5.319132
0.001930	-2.973011	-5.309926
0.001940	-2.843312	-5.301049
0.001950	-2.719993	-5.291842
0.001960	-2.603052	-5.283294
0.001970	-2.494615	-5.274416
0.001980	-2.390431	-5.265868
0.001990	-2.275617	-5.256004
0.002000	-2.182064	-5.247455
0.002010	-2.103394	-5.240222
0.002020	-2.011967	-5.232331
0.002030	-1.920541	-5.225755
0.002040	-1.835493	-5.222138
0.002050	-1.750445	-5.217864
0.002060	-1.654766	-5.211288
0.002070	-1.552708	-5.195506
0.002080	-1.467660	-5.179395
0.002090	-1.369855	-5.170846
0.002100	-1.255040	-5.160654
0.002110	-1.131720	-5.151119
0.002120	-1.019031	-5.140597
0.002130	-0.899964	-5.129747
0.002140	-0.774518	-5.118897
0.002150	-0.649072	-5.108047
0.002160	-0.532131	-5.096868
0.002170	-0.413064	-5.085689
0.002180	-0.304627	-5.074181
0.002190	-0.194065	-5.063331
0.002200	-0.094134	-5.053796
0.002210	-0.064367	-5.044590
0.002220	0.024934	-5.037028
0.002230	0.071710	-5.043603
0.002240	0.173768	-5.014998
0.002250	0.292835	-5.007107
0.002260	0.373631	-4.990010
0.002270	0.460805	-4.979160
0.002280	0.592630	-4.968310
0.002290	0.696813	-4.955487
0.002300	0.809502	-4.942006
0.002310	0.937074	-4.929183
0.002320	1.062520	-4.916360
0.002330	1.181587	-4.902551
0.002340	1.302781	-4.889399
0.002350	1.428227	-4.875590
0.002360	1.536663	-4.862110
0.002370	1.649351	-4.847971
0.002380	1.753535	-4.834491
0.002390	1.844962	-4.821339
0.002400	1.940641	-4.808516
0.002410	2.027815	-4.796351
0.002420	2.117116	-4.782870
0.002430	2.204290	-4.772020
0.002440	2.285086	-4.756238
0.002450	2.370134	-4.741442
0.002460	2.465813	-4.725660
0.002470	2.565744	-4.710865
0.002480	2.667802	-4.695411
0.002490	2.778364	-4.679629
0.002500	2.891053	-4.662861
0.002510	3.010120	-4.646092
0.002520	3.124935	-4.629653
0.002530	3.261012	-4.612227
0.002540	3.382205	-4.595129
0.002550	3.494894	-4.577703
0.002560	3.613961	-4.560277
0.002570	3.735154	-4.542522
0.002580	3.845717	-4.525096
0.002590	3.939270	-4.507013
0.002600	4.041327	-4.489916
0.002610	4.132754	-4.473147
0.002620	4.226307	-4.455721
0.002630	4.315607	-4.438953
0.002640	4.394277	-4.421527
0.002650	4.477198	-4.402456
0.002660	4.570751	-4.384373
0.002670	4.662178	-4.364974
0.002680	4.762109	-4.344589
0.002690	4.866293	-4.324532
0.002700	4.976855	-4.304147
0.002710	5.093796	-4.283433
0.002720	5.204359	-4.262062
0.002730	5.331931	-4.240033
0.002740	5.448872	-4.217675
0.002750	5.570065	-4.196303
0.002760	5.687006	-4.173616
0.002770	5.812452	-4.150930
0.002780	5.925141	-4.128900
0.002790	6.029324	-4.106214
0.002800	6.135634	-4.083856
0.002810	6.231313	-4.061498
0.002820	6.320614	-4.039140
0.002830	6.407788	-4.015796
0.002840	6.511972	-3.993766
0.002850	6.588515	-3.970093
0.002860	6.677815	-3.946749
0.002870	6.764990	-3.923076
0.002880	6.858542	-3.897759
0.002890	6.962726	-3.871784
0.002900	7.064784	-3.846138
0.002910	7.171094	-3.818848
0.002920	7.290161	-3.792874
0.002930	7.407102	-3.765255
0.002940	7.532548	-3.737636
0.002950	7.649489	-3.709689
0.002960	7.766430	-3.681413
0.002970	7.889749	-3.652479
0.002980	8.004564	-3.623216
0.002990	8.121505	-3.594611
0.003000	8.227815	-3.566006
0.003010	8.329873	-3.537072
0.003020	8.423425	-3.507481
0.003030	8.521230	-3.478876
0.003040	8.610531	-3.449285
0.003050	8.695579	-3.419364
0.003060	8.778501	-3.389115
0.003070	8.867801	-3.358538
0.003080	8.957101	-3.326973
0.003090	9.061285	-3.294423
0.003100	9.159090	-3.262201
0.003110	9.256895	-3.228993
0.003120	9.369584	-3.194470
0.003130	9.482273	-3.160604
0.003140	9.599214	-3.125423
0.003150	9.726785	-3.089913
0.003160	9.843726	-3.054075
0.003170	9.958541	-3.017579
0.003180	10.081861	-2.980754
0.003190	10.200928	-2.942943
0.003200	10.307238	-2.906447
0.003210	10.415674	-2.868307
0.003220	10.517732	-2.831482
0.003230	10.613410	-2.793999
0.003240	10.711216	-2.755530
0.003250	10.804768	-2.717390
0.003260	10.887690	-2.678264
0.003270	10.976991	-2.638480
0.003280	11.068417	-2.598038
0.003290	11.155591	-2.556939
0.003300	11.259775	-2.515511
0.003310	11.361833	-2.473097
0.003320	11.461764	-2.428710
0.003330	11.570200	-2.385309
0.003340	11.687141	-2.341579
0.003350	11.801956	-2.295877
0.003360	11.916770	-2.250504
0.003370	12.029459	-2.204473
0.003380	12.152778	-2.157126
0.003390	12.269719	-2.110109
0.003400	12.388787	-2.062434
0.003410	12.499349	-2.013115
0.003420	12.607785	-1.964782
0.003430	12.703464	-1.916121
0.003440	12.805521	-1.866473
0.003450	12.896948	-1.816825
0.003460	12.992627	-1.766191
0.003470	13.075549	-1.715228
0.003480	13.164849	-1.664265
0.003490	13.256276	-1.611658
0.003500	13.354081	-1.558393
0.003510	13.454012	-1.504142
0.003520	13.553943	-1.448905
0.003530	13.658127	-1.392681
0.003540	13.764437	-1.336128
0.003550	13.877126	-1.278590
0.003560	13.998319	-1.220064
0.003570	14.115260	-1.162197
0.003580	14.225822	-1.102027
0.003590	14.340637	-1.040872
0.003600	14.459704	-0.979716
0.003610	14.570266	-0.917903
0.003620	14.682955	-0.855761
0.003630	14.791391	-0.793290
0.003640	14.893448	-0.730490
0.003650	14.993380	-0.666704
0.003660	15.084806	-0.602918
0.003670	15.178359	-0.537160
0.003680	15.267659	-0.471730
0.003690	15.356960	-0.406300
0.003700	15.450512	-0.339226
0.003710	15.550444	-0.272480
0.003720	15.652501	-0.203762
0.003730	15.748180	-0.134058
0.003740	15.856616	-0.063039
0.003750	15.958674	0.008310
0.003760	16.073488	0.079987
0.003770	16.181924	0.151664
0.003780	16.298865	0.223012
0.003790	16.413680	0.296333
0.003800	16.528495	0.370641
0.003810	16.639057	0.445935
0.003820	16.753872	0.520242
0.003830	16.864434	0.594878
0.003840	16.972870	0.669515
0.003850	17.079180	0.745137
0.003860	17.174859	0.820760
0.003870	17.268412	0.896711
0.003880	17.361964	0.973321
0.003890	17.449138	1.048943
0.003900	17.546944	1.124895
0.003910	17.640496	1.201833
0.003920	17.736175	1.280086
0.003930	17.836106	1.357681
0.003940	17.936038	1.435277
0.003950	18.046600	1.513530
0.003960	18.155036	1.591125
0.003970	18.265598	1.669050
0.003980	18.376161	1.747631
0.003990	18.486723	1.825227
0.004000	18.605790	1.902822
0.004010	18.724857	1.979432
0.004020	18.839672	2.057027
0.004030	18.952360	2.133636
0.004040	19.054418	2.210903
0.004050	19.158601	2.286526
0.004060	19.258533	2.360833
0.004070	19.362716	2.434483
0.004080	19.464774	2.507476
0.004090	19.549822	2.581126
0.004100	19.636996	2.654118
0.004110	19.722044	2.725467
0.004120	19.817723	2.796815
0.004130	19.917654	2.866191
0.004140	20.021838	2.936225
0.004150	20.123895	3.006915
0.004160	20.232331	3.076949
0.004170	20.332262	3.144681
0.004180	20.449203	3.211755
0.004190	20.568270	3.278829
0.004200	20.683085	3.344588
0.004210	20.795774	3.411005
0.004220	20.908462	3.476435
0.004230	21.025403	3.540221
0.004240	21.138091	3.602692
0.004250	21.248654	3.664177
0.004260	21.357090	3.726319
0.004270	21.452769	3.786160
0.004280	21.548447	3.845343
0.004290	21.642000	3.903540
0.004300	21.735553	3.960750
0.004310	21.831232	4.016974
0.004320	21.918406	4.073198
0.004330	22.011958	4.128436
0.004340	22.107637	4.184002
0.004350	22.209695	4.237596
0.004360	22.316005	4.291190
0.004370	22.422314	4.344455
0.004380	22.532877	4.397062
0.004390	22.641313	4.449012
0.004400	22.754001	4.499975
0.004410	22.875194	4.550610
0.004420	22.990009	4.601244
0.004430	23.102698	4.650563
0.004440	23.228143	4.698568
0.004450	23.330201	4.746243
0.004460	23.440763	4.792932
0.004470	23.553451	4.840279
0.004480	23.634247	4.884995
0.004490	23.742683	4.929711
0.004500	23.831983	4.974099
0.004510	23.921283	5.017828
0.004520	24.014836	5.060572
0.004530	24.099884	5.103644
0.004540	24.197689	5.145401
0.004550	24.293368	5.187158
0.004560	24.397552	5.228915
0.004570	24.503861	5.270344
0.004580	24.610171	5.312430
0.004590	24.718607	5.351556
0.004600	24.833422	5.392327
0.004610	24.954615	5.432440
0.004620	25.067304	5.471238
0.004630	25.182118	5.510365
0.004640	25.299059	5.549492
0.004650	25.413874	5.586646
0.004660	25.522310	5.624457
0.004670	25.634998	5.660953
0.004680	25.732803	5.697779
0.004690	25.830608	5.732960
0.004700	25.926287	5.764195
0.004710	25.809346	5.793130
0.004720	25.715794	5.820748
0.004730	25.632872	5.844422
0.004740	25.535067	5.865794
0.004750	25.454272	5.884535
0.004760	25.362845	5.900975
0.004770	25.269292	5.916428
0.004780	25.179992	5.929580
0.004790	25.075808	5.941088
0.004800	24.973751	5.951938
0.004810	24.865315	5.958843
0.004820	24.748374	5.967063
0.004830	24.635686	5.974954
0.004840	24.516619	5.982187
0.004850	24.399678	5.986791
0.004860	24.276358	5.988106
0.004870	24.155165	5.989750
0.004880	24.044603	5.990079
0.004890	23.931914	5.983174
0.004900	23.829857	5.995339
0.004910	23.723547	6.006518
0.004920	23.606606	6.015396
0.004930	23.525811	6.015396
0.004940	23.442889	6.017697
0.004950	23.357841	6.020328
0.004960	23.272793	6.020985
0.004970	23.185619	6.023287
0.004980	23.094193	6.024602
0.004990	22.994262	6.024931
0.005000	22.898583	6.027233
0.005010	22.794399	6.028219
0.005020	22.681711	6.025589
0.005030	22.560517	6.024273
0.005040	22.447829	6.023287
0.005050	22.322383	6.019341
0.005060	22.201190	6.017369
0.005070	22.082123	6.014409
0.005080	21.965182	6.010464
0.005090	21.846115	6.006190
0.005100	21.744058	6.001258
0.005110	21.637748	5.991723
0.005120	21.539943	5.999942
0.005130	21.431507	6.014081
0.005140	21.335828	6.012437
0.005150	21.252906	6.009478
0.005160	21.172110	6.008820
0.005170	21.087063	6.007834
0.005180	20.997762	6.006518
0.005190	20.906336	6.006518
0.005200	20.817035	6.006190
0.005210	20.708599	6.005203
0.005220	20.604416	6.003230
0.005230	20.491727	5.999285
0.005240	20.374786	5.995339
0.005250	20.255719	5.991723
0.005260	20.132400	5.988435
0.005270	20.011207	5.984489
0.005280	19.892140	5.979886
0.005290	19.766694	5.974954
0.005300	19.660384	5.970351
0.005310	19.551948	5.964761
0.005320	19.445638	5.952925
0.005330	19.356338	5.958185
0.005340	19.250028	5.973639
0.005350	19.150097	5.971337
0.005360	19.069301	5.969036
0.005370	18.982127	5.966734
0.005380	18.901331	5.966076
0.005390	18.812031	5.964432
0.005400	18.724857	5.963446
0.005410	18.631304	5.962460
0.005420	18.524995	5.961144
0.005430	18.418685	5.957857
0.005440	18.305996	5.954569
0.005450	18.186929	5.949965
0.005460	18.065736	5.945362
0.005470	17.944543	5.941417
0.005480	17.823349	5.936156
0.005490	17.697904	5.931553
0.005500	17.583089	5.926621
0.005510	17.474653	5.923333
0.005520	17.357712	5.913469
0.005530	17.262033	5.902948
0.005540	17.162102	5.918072
0.005550	17.047287	5.925963
0.005560	16.962239	5.922018
0.005570	16.881444	5.918730
0.005580	16.792143	5.916428
0.005590	16.711348	5.915113
0.005600	16.626300	5.913469
0.005610	16.534873	5.912154
0.005620	16.434942	5.910839
0.005630	16.335011	5.908208
0.005640	16.226575	5.904920
0.005650	16.122391	5.902619
0.005660	16.001198	5.896700
0.005670	15.873626	5.892097
0.005680	15.754559	5.887823
0.005690	15.633365	5.881905
0.005700	15.507920	5.876644
0.005710	15.397357	5.873027
0.005720	15.280416	5.864150
0.005730	15.171980	5.857902
0.005740	15.076301	5.847710
0.005750	14.980622	5.852642
0.005760	14.863682	5.870725
0.005770	14.780760	5.865465
0.005780	14.702090	5.862506
0.005790	14.612790	5.859875
0.005800	14.534121	5.857902
0.005810	14.449073	5.855601
0.005820	14.353394	5.854614
0.005830	14.257715	5.853957
0.005840	14.149279	5.850998
0.005850	14.042969	5.848039
0.005860	13.928154	5.842449
0.005870	13.800582	5.837517
0.005880	13.687894	5.833243
0.005890	13.558196	5.827653
0.005900	13.437002	5.821077
0.005910	13.315809	5.815817
0.005920	13.203121	5.809898
0.005930	13.088306	5.804966
0.005940	12.981996	5.796746
0.005950	12.882065	5.783923
0.005960	12.788512	5.802336
0.005970	12.680076	5.806939
0.005980	12.584397	5.802993
0.005990	12.503601	5.799048
0.006000	12.431311	5.796089
0.006010	12.342010	5.793787
0.006020	12.256962	5.791157
0.006030	12.165536	5.791157
0.006040	12.067731	5.789184
0.006050	11.957168	5.784581
0.006060	11.850858	5.781293
0.006070	11.742422	5.775375
0.006080	11.614850	5.769456
0.006090	11.493657	5.764524
0.006100	11.370337	5.758935
0.006110	11.244892	5.752359
0.006120	11.123698	5.746769
0.006130	11.006757	5.739865
0.006140	10.896195	5.733617
0.006150	10.789885	5.726384
0.006160	10.685701	5.710602
0.006170	10.590022	5.732302
0.006180	10.487965	5.735261
0.006190	10.396538	5.730658
0.006200	10.311490	5.725398
0.006210	10.237073	5.722438
0.006220	10.160530	5.719479
0.006230	10.066977	5.716849
0.006240	9.973425	5.715534
0.006250	9.873493	5.712903
0.006260	9.771436	5.708958
0.006270	9.656621	5.703039
0.006280	9.539680	5.696792
0.006290	9.414234	5.691860
0.006300	9.295167	5.684956
0.006310	9.163343	5.677722
0.006320	9.050654	5.672461
0.006330	8.925208	5.664241
0.006340	8.806141	5.656679
0.006350	8.695579	5.650761
0.006360	8.591395	5.640568
0.006370	8.497842	5.627416
0.006380	8.400037	5.643856
0.006390	8.291601	5.649446
0.006400	8.204427	5.643198
0.006410	8.121505	5.638267
0.006420	8.038583	5.634650
0.006430	7.968419	5.631033
0.006440	7.872740	5.627745
0.006450	7.779187	5.624786
0.006460	7.677129	5.621827
0.006470	7.579324	5.617881
0.006480	7.464509	5.609990
0.006490	7.336937	5.603414
0.006500	7.226375	5.597167
0.006510	7.100929	5.589933
0.006520	6.975483	5.581385
0.006530	6.852164	5.575138
0.006540	6.728844	5.565603
0.006550	6.609777	5.558040
0.006560	6.501341	5.550807
0.006570	6.397157	5.538312
0.006580	6.292973	5.524174
0.006590	6.203673	5.532723
0.006600	6.101615	5.543902
0.006610	6.001684	5.538641
0.006620	5.925141	5.532723
0.006630	5.848597	5.528120
0.006640	5.761423	5.522530
0.006650	5.680628	5.519571
0.006660	5.580696	5.515297
0.006670	5.482891	5.510365
0.006680	5.380833	5.504446
0.006690	5.266019	5.496227
0.006700	5.149078	5.488993
0.006710	5.030010	5.479787
0.006720	4.885429	5.469923
0.006730	4.776993	5.464333
0.006740	4.662178	5.454798
0.006750	4.526101	5.443948
0.006760	4.409160	5.435399
0.006770	4.307102	5.427179
0.006780	4.198666	5.415343
0.006790	4.098735	5.401862
0.006800	4.013687	5.401205
0.006810	3.909503	5.414356
0.006820	3.815950	5.409096
0.006830	3.735154	5.401205
0.006840	3.658611	5.394957
0.006850	3.573563	5.389039
0.006860	3.486389	5.383121
0.006870	3.386457	5.377860
0.006880	3.295031	5.372599
0.006890	3.186595	5.364379
0.006900	3.069654	5.353529
0.006910	2.950586	5.344980
0.006920	2.829393	5.335445
0.006930	2.706073	5.325253
0.006940	2.578501	5.314074
0.006950	2.453055	5.303552
0.006960	2.327610	5.292373
0.006970	2.210669	5.281194
0.006980	2.102232	5.270015
0.006990	2.000175	5.257192
0.007000	1.904496	5.244698
0.007010	1.808817	5.233519
0.007020	1.719516	5.249301
0.007030	1.625963	5.244369
0.007040	1.543041	5.234176
0.007050	1.466498	5.225299
0.007060	1.379324	5.217736
0.007070	1.285771	5.210832
0.007080	1.196471	5.203269
0.007090	1.090161	5.195049
0.007100	0.990229	5.184199
0.007110	0.879667	5.172691
0.007120	0.756347	5.160197
0.007130	0.637280	5.149347
0.007140	0.520339	5.137181
0.007150	0.390640	5.123043
0.007160	0.260942	5.109891
0.007170	0.137622	5.097068
0.007180	0.018555	5.083259
0.007190	-0.089881	5.069449
0.007200	-0.202570	5.051366
0.007210	-0.223832	5.063531
0.007220	-0.317385	5.054325
0.007230	-0.385423	5.044461
0.007240	-0.478976	5.034268
0.007250	-0.564024	5.024075
0.007260	-0.644820	5.015198
0.007270	-0.746877	5.004348
0.007280	-0.851061	4.991853
0.007290	-0.959498	4.979030
0.007300	-1.070060	4.965550
0.007310	-1.191254	4.950425
0.007320	-1.312447	4.936945
0.007330	-1.446398	4.921162
0.007340	-1.569717	4.904065
0.007350	-1.693037	4.886310
0.007360	-1.803600	4.875131
0.007370	-1.922667	4.858691
0.007380	-2.043860	4.840607
0.007390	-2.139540	4.827784
0.007400	-2.207578	4.822852
0.007410	-2.296879	4.806413
0.007420	-2.415946	4.784712
0.007430	-2.498868	4.778136
0.007440	-2.581790	4.768601
0.007450	-2.662585	4.756107
0.007460	-2.737002	4.745585
0.007470	-2.834808	4.734735
0.007480	-2.943244	4.720268
0.007490	-3.051680	4.705144
0.007500	-3.155864	4.684429
0.007510	-3.274932	4.673250
0.007520	-3.385494	4.654180
0.007530	-3.506688	4.634781
0.007540	-3.636386	4.615382
0.007550	-3.766084	4.595983
0.007560	-3.887278	4.577242
0.007570	-4.004219	4.557514
0.007580	-4.119034	4.538115
0.007590	-4.225344	4.519374
0.007600	-4.329528	4.500304
0.007610	-4.423081	4.482220
0.007620	-4.510255	4.466109
0.007630	-4.595303	4.450327
0.007640	-4.686730	4.435202
0.007650	-4.771778	4.421064
0.007660	-4.856826	4.405282
0.007670	-4.944001	4.387856
0.007680	-5.046058	4.369443
0.007690	-5.137485	4.350702
0.007700	-5.243795	4.329659
0.007710	-5.358610	4.307958
0.007720	-5.469173	4.286258
0.007730	-5.586114	4.264886
0.007740	-5.711560	4.241542
0.007750	-5.834880	4.218526
0.007760	-5.956073	4.195182
0.007770	-6.075141	4.171837
0.007780	-6.194208	4.147506
0.007790	-6.309023	4.123504
0.007800	-6.415333	4.099173
0.007810	-6.508886	4.076815
0.007820	-6.608818	4.054128
0.007830	-6.721506	4.031113
0.007840	-6.793797	4.010398
0.007850	-6.889476	3.988369
0.007860	-6.976651	3.966669
0.007870	-7.063825	3.943982
0.007880	-7.150999	3.921295
0.007890	-7.246679	3.896306
0.007900	-7.352989	3.870989
0.007910	-7.452920	3.845343
0.007920	-7.565609	3.817724
0.007930	-7.676172	3.790763
0.007940	-7.793113	3.763473
0.007950	-7.916433	3.734539
0.007960	-8.037626	3.704619
0.007970	-8.156694	3.675685
0.007980	-8.273635	3.645436
0.007990	-8.392702	3.615186
0.008000	-8.503265	3.584937
0.008010	-8.613828	3.555017
0.008020	-8.707380	3.525754
0.008030	-8.807312	3.495505
0.008040	-8.894486	3.466900
0.008050	-8.990166	3.438623
0.008060	-9.075214	3.409361
0.008070	-9.164514	3.380098
0.008080	-9.253815	3.350178
0.008090	-9.347368	3.319600
0.008100	-9.440921	3.287378
0.008110	-9.549357	3.254827
0.008120	-9.651415	3.220961
0.008130	-9.759852	3.186438
0.008140	-9.870414	3.152900
0.008150	-10.000113	3.115747
0.008160	-10.119180	3.079908
0.008170	-10.238248	3.042754
0.008180	-10.353063	3.004943
0.008190	-10.472130	2.966145
0.008200	-10.589071	2.927676
0.008210	-10.697508	2.889207
0.008220	-10.805944	2.850738
0.008230	-10.903750	2.812598
0.008240	-10.997303	2.774129
0.008250	-11.092982	2.735331
0.008260	-11.182282	2.697191
0.008270	-11.269457	2.658393
0.008280	-11.356631	2.619266
0.008290	-11.448058	2.579482
0.008300	-11.541611	2.539040
0.008310	-11.639416	2.497941
0.008320	-11.743600	2.454869
0.008330	-11.854163	2.410481
0.008340	-11.960473	2.365765
0.008350	-12.073162	2.321378
0.008360	-12.192230	2.275347
0.008370	-12.313423	2.228329
0.008380	-12.423986	2.181312
0.008390	-12.545180	2.132650
0.008400	-12.659995	2.083002
0.008410	-12.774810	2.033683
0.008420	-12.887499	1.983706
0.008430	-12.991683	1.934058
0.008440	-13.089488	1.883752
0.008450	-13.183041	1.833447
0.008460	-13.287225	1.783470
0.008470	-13.374400	1.732507
0.008480	-13.461574	1.680886
0.008490	-13.553001	1.628608
0.008500	-13.648680	1.576001
0.008510	-13.740107	1.521750
0.008520	-13.842165	1.467170
0.008530	-13.942097	1.411275
0.008540	-14.050533	1.353736
0.008550	-14.154717	1.296197
0.008560	-14.271659	1.238000
0.008570	-14.386474	1.178159
0.008580	-14.497036	1.118319
0.008590	-14.620356	1.056505
0.008600	-14.737298	0.994363
0.008610	-14.852113	0.930906
0.008620	-14.964802	0.867778
0.008630	-15.079617	0.803663
0.008640	-15.181675	0.739877
0.008650	-15.281607	0.674775
0.008660	-15.377286	0.610332
0.008670	-15.475091	0.545230
0.008680	-15.562266	0.479143
0.008690	-15.657945	0.413055
0.008700	-15.747246	0.346968
0.008710	-15.842925	0.278907
0.008720	-15.940730	0.209860
0.008730	-16.036410	0.140485
0.008740	-16.140594	0.069137
0.008750	-16.242652	-0.002212
0.008760	-16.348962	-0.074218
0.008770	-16.468030	-0.148196
0.008780	-16.584971	-0.221517
0.008790	-16.699786	-0.295825
0.008800	-16.816728	-0.371776
0.008810	-16.935795	-0.448385
0.008820	-17.048484	-0.524665
0.008830	-17.161173	-0.602261
0.008840	-17.269610	-0.678541
0.008850	-17.369541	-0.755479
0.008860	-17.473726	-0.833074
0.008870	-17.569405	-0.909683
0.008880	-17.658706	-0.985963
0.008890	-17.752259	-1.062243
0.008900	-17.845812	-1.139839
0.008910	-17.935112	-1.216776
0.008920	-18.030792	-1.294372
0.008930	-18.130724	-1.371638
0.008940	-18.230655	-1.449891
0.008950	-18.339092	-1.528144
0.008960	-18.445402	-1.607055
0.008970	-18.553839	-1.684979
0.008980	-18.662275	-1.764218
0.008990	-18.781343	-1.841484
0.009000	-18.896158	-1.919408
0.009010	-19.010973	-1.997661
0.009020	-19.127915	-2.076901
0.009030	-19.240604	-2.154167
0.009040	-19.355419	-2.231762
0.009050	-19.461729	-2.307714
0.009060	-19.559535	-2.383007
0.009070	-19.661593	-2.458301
0.009080	-19.772156	-2.531951
0.009090	-19.857204	-2.604943
0.009100	-19.955010	-2.676620
0.009110	-20.044310	-2.748297
0.009120	-20.137864	-2.819316
0.009130	-20.231417	-2.889349
0.009140	-20.335601	-2.959054
0.009150	-20.435533	-3.027771
0.009160	-20.539717	-3.096818
0.009170	-20.641775	-3.164878
0.009180	-20.754464	-3.232281
0.009190	-20.867153	-3.298697
0.009200	-20.979842	-3.364456
0.009210	-21.096784	-3.429886
0.009220	-21.209473	-3.495316
0.009230	-21.326414	-3.559102
0.009240	-21.441229	-3.622559
0.009250	-21.549666	-3.685029
0.009260	-21.658103	-3.745856
0.009270	-21.760161	-3.806025
0.009280	-21.857966	-3.864879
0.009290	-21.955772	-3.922747
0.009300	-22.047199	-3.978313
0.009310	-22.140752	-4.034537
0.009320	-22.232179	-4.089116
0.009330	-22.325732	-4.143367
0.009340	-22.421412	-4.196961
0.009350	-22.514965	-4.249896
0.009360	-22.619149	-4.302503
0.009370	-22.729712	-4.355439
0.009380	-22.833896	-4.407060
0.009390	-22.946585	-4.457365
0.009400	-23.076284	-4.509314
0.009410	-23.191099	-4.559291
0.009420	-23.308041	-4.609925
0.009430	-23.424982	-4.659573
0.009440	-23.541924	-4.708234
0.009450	-23.650360	-4.756567
0.009460	-23.763050	-4.803913
0.009470	-23.865108	-4.850602
0.009480	-23.965040	-4.896304
0.009490	-24.064971	-4.941677
0.009500	-24.152146	-4.983763
0.009510	-24.245699	-5.027164
0.009520	-24.335000	-5.068592
0.009530	-24.426427	-5.109362
0.009540	-24.519980	-5.151448
0.009550	-24.615660	-5.191889
0.009560	-24.711339	-5.231673
0.009570	-24.819776	-5.273101
0.009580	-24.923960	-5.312885
0.009590	-25.036649	-5.352669
0.009600	-25.147212	-5.392782
0.009610	-25.257775	-5.432237
0.009620	-25.376843	-5.470706
0.009630	-25.493784	-5.509832
0.009640	-25.610726	-5.548630
0.009650	-25.727668	-5.586441
0.009660	-25.836104	-5.624581
0.009670	-25.948794	-5.661406
0.009680	-26.050852	-5.697902
0.009690	-26.148657	-5.733412
0.009700	-26.244337	-5.761688
0.009710	-26.129521	-5.786019
0.009720	-26.031716	-5.813637
0.009730	-25.938162	-5.836653
0.009740	-25.840357	-5.857696
0.009750	-25.753182	-5.877094
0.009760	-25.666008	-5.894520
0.009770	-25.574580	-5.911289
0.009780	-25.481027	-5.925098
0.009790	-25.387474	-5.938907
0.009800	-25.291795	-5.951073
0.009810	-25.185484	-5.961265
0.009820	-25.072795	-5.970472
0.009830	-24.964358	-5.979020
0.009840	-24.836786	-5.969814
0.009850	-24.721970	-5.975732
0.009860	-24.607155	-5.980993
0.009870	-24.475330	-5.984939
0.009880	-24.349883	-5.987898
0.009890	-24.243573	-5.989213
0.009900	-24.133010	-5.990857
0.009910	-24.026700	-5.992830
0.009920	-23.933146	-5.995789
0.009930	-23.839593	-5.999077
0.009940	-23.756671	-6.003022
0.009950	-23.671623	-6.007625
0.009960	-23.578069	-6.010256
0.009970	-23.497273	-6.015516
0.009980	-23.395215	-5.995295
0.009990	-23.305915	-6.021763

