LabVIEW Measurement	
Writer_Version	2
Reader_Version	2
Separator	Tab
Decimal_Separator	.
Multi_Headings	Yes
X_Columns	One
Time_Pref	Relative
Operator	e014
Description	Hysteresis Loop Data
Date	2015/08/28
Time	10:50:34.4817795753479003906
***End_of_Header***	
	
Channels	2		
Samples	100	100	
Date	2015/08/28	2015/08/28	
Time	10:50:34.4817795753479003906	10:50:34.4817795753479003906	
Y_Unit_Label	V	C	
X_Dimension	Time	Time	
X0	0.0000000000000000E+0	0.0000000000000000E+0	
Delta_X	0.000100	0.000100	
***End_of_Header***			
X_Value	Applied Voltage	Charge	Comment
0.000000	-25.368338	-3.748922E-6	Source: DAQ NI USB-6211 | Sample Length: 1.00E+3 ms | Sample Rate: 10.0 kHz | Sense Capacitance: 680 nF
0.000100	-25.919027	-3.771280E-6
0.000200	-24.957980	-3.667315E-6
0.000300	-23.958661	-3.569835E-6
0.000400	-22.723333	-3.504773E-6
0.000500	-21.507142	-3.559103E-6
0.000600	-20.752338	-3.329487E-6
0.000700	-19.833816	-3.227311E-6
0.000800	-18.755829	-3.134525E-6
0.000900	-17.310008	-3.122005E-6
0.001000	-16.670019	-2.928162E-6
0.001100	-15.551635	-2.813242E-6
0.001200	-14.548065	-2.703017E-6
0.001300	-13.174537	-2.669033E-6
0.001400	-12.443122	-2.486145E-6
0.001500	-11.365136	-2.330534E-6
0.001600	-10.268014	-2.219638E-6
0.001700	-8.960399	-1.963863E-6
0.001800	-8.044005	-1.864370E-6
0.001900	-7.021301	-1.669856E-6
0.002000	-5.845511	-1.401784E-6
0.002100	-4.948253	-1.233876E-6
0.002200	-3.897909	-9.863731E-7
0.002300	-2.815672	-7.261263E-7
0.002400	-1.752571	-4.526882E-7
0.002500	-0.697975	-1.745549E-7
0.002600	0.282204	7.741972E-8
0.002700	1.341052	3.392319E-7
0.002800	2.399900	6.090931E-7
0.002900	3.465127	8.704583E-7
0.003000	4.521849	1.117962E-6
0.003100	5.565813	1.345566E-6
0.003200	6.603398	1.560651E-6
0.003300	7.670751	1.760532E-6
0.003400	8.727472	1.947445E-6
0.003500	9.756552	2.117143E-6
0.003600	10.802642	2.280580E-6
0.003700	11.940159	2.441782E-6
0.003800	12.850172	2.592252E-6
0.003900	14.115260	2.709855E-6
0.004000	14.799896	2.861220E-6
0.004100	15.852364	2.980165E-6
0.004200	17.053666	3.074516E-6
0.004300	18.216696	3.124822E-6
0.004400	19.464774	3.137566E-6
0.004500	20.538504	3.292507E-6
0.004600	21.301809	3.452591E-6
0.004700	22.381917	3.451474E-6
0.004800	23.164357	3.602391E-6
0.004900	24.214699	3.675055E-6
0.005000	25.456398	3.660299E-6
0.005100	26.296246	3.766947E-6
0.005200	24.916344	3.726702E-6
0.005300	23.872381	3.648896E-6
0.005400	23.149474	3.512511E-6
0.005500	21.663262	3.458181E-6
0.005600	21.023277	3.295637E-6
0.005700	19.987818	3.209112E-6
0.005800	18.646188	3.192790E-6
0.005900	17.725544	3.043662E-6
0.006000	16.492349	2.980835E-6
0.006100	15.478153	2.844004E-6
0.006200	14.727605	2.705831E-6
0.006300	13.354081	2.591134E-6
0.006400	12.297360	2.474872E-6
0.006500	11.295920	2.303162E-6
0.006600	10.470955	2.215518E-6
0.006700	9.293041	1.989702E-6
0.006800	8.266087	1.832525E-6
0.006900	7.188103	1.656343E-6
0.007000	6.137761	1.449531E-6
0.007100	5.074661	1.234447E-6
0.007200	4.034949	1.005501E-6
0.007300	2.969722	7.584446E-7
0.007400	1.930010	5.013274E-7
0.007500	0.875414	2.368323E-7
0.007600	-0.111143	-9.776457E-9
0.007700	-1.187001	-2.686820E-7
0.007800	-2.230966	-5.403315E-7
0.007900	-3.294067	-8.068386E-7
0.008000	-4.335907	-1.061719E-6
0.008100	-5.394756	-1.302515E-6
0.008200	-6.438721	-1.526318E-6
0.008300	-7.503949	-1.733353E-6
0.008400	-8.545789	-1.921607E-6
0.008500	-9.594008	-2.099576E-6
0.008600	-10.654984	-2.263460E-6
0.008700	-11.705329	-2.420636E-6
0.008800	-12.757800	-2.560150E-6
0.008900	-13.808146	-2.696757E-6
0.009000	-14.856365	-2.819502E-6
0.009100	-15.900333	-2.940011E-6
0.009200	-16.971941	-3.047777E-6
0.009300	-18.003151	-3.155766E-6
0.009400	-19.057750	-3.249222E-6
0.009500	-20.118728	-3.348044E-6
0.009600	-21.162696	-3.428309E-6
0.009700	-22.210917	-3.520200E-6
0.009800	-23.280400	-3.595099E-6
0.009900	-24.288223	-3.672458E-6

