LabVIEW Measurement	
Writer_Version	2
Reader_Version	2
Separator	Tab
Decimal_Separator	.
Multi_Headings	Yes
X_Columns	One
Time_Pref	Relative
Operator	e014
Description	Hysteresis Loop Data
Date	2015/09/01
Time	15:41:36.6589488983154296875
***End_of_Header***	
	
Channels	2		
Samples	200	200	
Date	2015/09/01	2015/09/01	
Time	15:41:36.6589488983154296875	15:41:36.6589488983154296875	
Y_Unit_Label	V	C	
X_Dimension	Time	Time	
X0	0.0000000000000000E+0	0.0000000000000000E+0	
Delta_X	5.000000E-5	5.000000E-5	
***End_of_Header***			
X_Value	Applied Voltage	Charge	Comment
0.000000	2.846403	9.478248E-9	Source: DAQ NI USB-6211 | Sample Length: 1.00E+3 ms | Sample Rate: 20.0 kHz | Sense Capacitance: 100 nF
5.000000E-5	2.342493	8.491866E-9
0.000100	1.815195	7.045172E-9
0.000150	1.251752	6.025910E-9
0.000200	0.747842	4.283302E-9
0.000250	0.248185	3.494196E-9
0.000300	-0.253599	2.310538E-9
0.000350	-0.800032	8.967234E-10
0.000400	-1.278428	-1.554175E-10
0.000450	-1.795095	-1.306197E-9
0.000500	-2.324519	-2.720011E-9
0.000550	-2.881584	-3.936549E-9
0.000600	-3.387620	-5.350363E-9
0.000650	-3.889404	-6.303866E-9
0.000700	-4.416702	-7.684801E-9
0.000750	-4.973767	-8.835580E-9
0.000800	-5.479804	-1.054531E-8
0.000850	-5.977335	-1.126866E-8
0.000900	-6.502507	-1.274823E-8
0.000950	-7.072330	-1.383325E-8
0.001000	-7.586871	-1.560874E-8
0.001050	-8.073772	-1.636496E-8
0.001100	-8.605323	-1.774590E-8
0.001150	-9.151757	-1.883092E-8
0.001200	-9.676930	-2.060640E-8
0.001250	-10.172335	-2.142839E-8
0.001300	-10.691129	-2.287508E-8
0.001350	-11.237564	-2.399298E-8
0.001400	-11.777620	-2.576847E-8
0.001450	-12.258142	-2.659046E-8
0.001500	-12.785441	-2.800427E-8
0.001550	-13.316992	-2.935232E-8
0.001600	-13.871932	-3.083190E-8
0.001650	-14.356707	-3.194980E-8
0.001700	-14.869123	-3.323209E-8
0.001750	-15.396422	-3.471167E-8
0.001800	-15.953488	-3.602684E-8
0.001850	-16.457399	-3.760505E-8
0.001900	-16.963436	-3.859143E-8
0.001950	-17.488609	-4.007101E-8
0.002000	-18.043549	-4.122179E-8
0.002050	-18.547460	-4.312879E-8
0.002100	-19.042867	-4.391790E-8
0.002150	-19.570166	-4.549611E-8
0.002200	-20.133611	-4.667976E-8
0.002250	-20.652406	-4.848813E-8
0.002300	-21.137181	-4.937587E-8
0.002350	-21.660229	-5.085545E-8
0.002400	-22.210917	-5.207198E-8
0.002450	-22.742469	-5.397899E-8
0.002500	-23.237876	-5.493249E-8
0.002550	-23.760923	-5.641206E-8
0.002600	-24.298854	-5.762860E-8
0.002650	-24.845290	-5.940409E-8
0.002700	-25.321561	-6.045623E-8
0.002750	-25.844609	-6.187004E-8
0.002800	-26.082745	-6.203444E-8
0.002850	-25.536309	-6.104806E-8
0.002900	-25.017513	-5.979864E-8
0.002950	-24.526359	-5.900954E-8
0.003000	-24.007564	-5.769436E-8
0.003050	-23.459002	-5.677374E-8
0.003100	-22.910440	-5.526129E-8
0.003150	-22.429916	-5.427490E-8
0.003200	-21.904743	-5.305837E-8
0.003250	-21.368938	-5.200623E-8
0.003300	-20.822503	-5.059241E-8
0.003350	-20.346232	-4.950739E-8
0.003400	-19.825311	-4.829085E-8
0.003450	-19.287380	-4.714008E-8
0.003500	-18.728188	-4.579202E-8
0.003550	-18.241286	-4.467412E-8
0.003600	-17.726744	-4.362198E-8
0.003650	-17.207950	-4.224105E-8
0.003700	-16.640252	-4.099163E-8
0.003750	-16.146973	-3.970933E-8
0.003800	-15.638809	-3.882159E-8
0.003850	-15.115762	-3.730914E-8
0.003900	-14.558696	-3.612548E-8
0.003950	-14.048407	-3.481030E-8
0.004000	-13.555127	-3.388968E-8
0.004050	-13.023576	-3.247587E-8
0.004100	-12.470763	-3.129221E-8
0.004150	-11.949842	-2.994415E-8
0.004200	-11.462941	-2.895777E-8
0.004250	-10.937769	-2.757684E-8
0.004300	-10.399839	-2.652470E-8
0.004350	-9.851278	-2.494649E-8
0.004400	-9.372882	-2.399298E-8
0.004450	-8.849836	-2.264493E-8
0.004500	-8.309780	-2.152703E-8
0.004550	-7.759094	-2.008033E-8
0.004600	-7.276445	-1.896243E-8
0.004650	-6.759778	-1.777878E-8
0.004700	-6.223975	-1.659512E-8
0.004750	-5.666910	-1.521418E-8
0.004800	-5.177883	-1.396477E-8
0.004850	-4.663342	-1.291263E-8
0.004900	-4.136044	-1.153169E-8
0.004950	-3.578978	-1.024939E-8
0.005000	-3.079321	-8.967097E-9
0.005050	-2.569032	-8.046474E-9
0.005100	-2.043860	-6.534022E-9
0.005150	-1.493174	-5.317484E-9
0.005200	-0.987138	-4.068066E-9
0.005250	-0.493859	-3.081684E-9
0.005300	0.016429	-1.832267E-9
0.005350	0.584125	-4.184528E-10
0.005400	1.054015	7.980852E-10
0.005450	1.564303	1.850226E-9
0.005500	2.093727	3.198282E-9
0.005550	2.655044	4.480578E-9
0.005600	3.146197	5.795755E-9
0.005650	3.654359	6.749257E-9
0.005700	4.177404	8.228831E-9
0.005750	4.742973	9.478248E-9
0.005800	5.246883	1.076054E-8
0.005850	5.746540	1.168117E-8
0.005900	6.269585	1.319362E-8
0.005950	6.824523	1.437728E-8
0.006000	7.349695	1.582397E-8
0.006050	7.836594	1.677748E-8
0.006100	8.361765	1.825705E-8
0.006150	8.906073	1.927631E-8
0.006200	9.441875	2.085452E-8
0.006250	9.928774	2.193954E-8
0.006300	10.453946	2.328760E-8
0.006350	10.987622	2.440550E-8
0.006400	11.540433	2.601659E-8
0.006450	12.023080	2.713449E-8
0.006500	12.537620	2.835103E-8
0.006550	13.071296	2.963333E-8
0.006600	13.624108	3.114578E-8
0.006650	14.113134	3.242808E-8
0.006700	14.627674	3.354598E-8
0.006750	15.152845	3.495979E-8
0.006800	15.712035	3.634073E-8
0.006850	16.205313	3.768878E-8
0.006900	16.704969	3.867516E-8
0.006950	17.230140	4.028626E-8
0.007000	17.789330	4.160143E-8
0.007050	18.297491	4.301525E-8
0.007100	18.788643	4.396875E-8
0.007150	19.313814	4.564560E-8
0.007200	19.864499	4.689502E-8
0.007250	20.385417	4.840747E-8
0.007300	20.874443	4.949249E-8
0.007350	21.403866	5.103782E-8
0.007400	21.941794	5.222148E-8
0.007450	22.479722	5.389833E-8
0.007500	22.964495	5.511487E-8
0.007550	23.485413	5.646293E-8
0.007600	24.023341	5.777810E-8
0.007650	24.574026	5.932344E-8
0.007700	25.054547	6.063861E-8
0.007750	25.571212	6.188803E-8
0.007800	25.817851	6.208531E-8
0.007850	25.267166	6.126332E-8
0.007900	24.746248	5.965223E-8
0.007950	24.263601	5.899464E-8
0.008000	23.734178	5.774523E-8
0.008050	23.191998	5.675884E-8
0.008100	22.654070	5.514775E-8
0.008150	22.173549	5.442440E-8
0.008200	21.652631	5.317499E-8
0.008250	21.118956	5.195845E-8
0.008300	20.568270	5.054463E-8
0.008350	20.081371	4.965689E-8
0.008400	19.568958	4.840747E-8
0.008450	19.039534	4.709229E-8
0.008500	18.482471	4.581000E-8
0.008550	17.993445	4.456058E-8
0.008600	17.483158	4.363996E-8
0.008650	16.949482	4.225902E-8
0.008700	16.400923	4.117400E-8
0.008750	15.905519	3.956291E-8
0.008800	15.397357	3.880668E-8
0.008850	14.876439	3.739287E-8
0.008900	14.319375	3.640648E-8
0.008950	13.806961	3.463100E-8
0.009000	13.315809	3.394053E-8
0.009050	12.788512	3.252671E-8
0.009100	12.239953	3.157321E-8
0.009150	11.716908	2.979772E-8
0.009200	11.230008	2.907438E-8
0.009250	10.702711	2.769344E-8
0.009300	10.162656	2.664130E-8
0.009350	9.616223	2.496445E-8
0.009400	9.133576	2.414246E-8
0.009450	8.614783	2.282729E-8
0.009500	8.076855	2.170939E-8
0.009550	7.528295	2.013118E-8
0.009600	7.041396	1.914479E-8
0.009650	6.526855	1.792826E-8
0.009700	5.991053	1.658020E-8
0.009750	5.433988	1.529790E-8
0.009800	4.944962	1.401561E-8
0.009850	4.434674	1.299634E-8
0.009900	3.905250	1.158253E-8
0.009950	3.405593	1.095782E-8

