LabVIEW Measurement	
Writer_Version	2
Reader_Version	2
Separator	Tab
Decimal_Separator	.
Multi_Headings	Yes
X_Columns	One
Time_Pref	Relative
Operator	e014
Description	Hysteresis Loop Data
Date	2015/09/03
Time	16:05:01.9853687286376953125
***End_of_Header***	
	
Channels	2		
Samples	200	200	
Date	2015/09/03	2015/09/03	
Time	16:05:01.9853687286376953125	16:05:01.9853687286376953125	
Y_Unit_Label	V	C	
X_Dimension	Time	Time	
X0	0.0000000000000000E+0	0.0000000000000000E+0	
Delta_X	5.000000E-5	5.000000E-5	
***End_of_Header***			
X_Value	Applied Voltage	Charge	Comment
0.000000	7.124317	2.354992E-6	Source: DAQ NI USB-6211 | Sample Length: 1.00E+3 ms | Sample Rate: 20.0 kHz | Sense Capacitance: 4.73E+3 nF
5.000000E-5	6.590641	2.205693E-6
0.000100	6.065470	2.036176E-6
0.000150	5.546677	1.835556E-6
0.000200	5.023632	1.653598E-6
0.000250	4.494208	1.501189E-6
0.000300	3.973289	1.344114E-6
0.000350	3.458748	1.145049E-6
0.000400	2.927198	9.630910E-7
0.000450	2.412658	8.091266E-7
0.000500	1.893865	6.396102E-7
0.000550	1.372945	4.483211E-7
0.000600	0.841395	2.663632E-7
0.000650	0.322602	1.170644E-7
0.000700	-0.128153	-9.755260E-8
0.000750	-0.702227	-2.499618E-7
0.000800	-1.210389	-3.743774E-7
0.000850	-1.710047	-5.454490E-7
0.000900	-2.245850	-7.538452E-7
0.000950	-2.783779	-9.171407E-7
0.001000	-3.287689	-1.094433E-6
0.001050	-3.819239	-1.260839E-6
0.001100	-4.340159	-1.438131E-6
0.001150	-4.863205	-1.616979E-6
0.001200	-5.381998	-1.789605E-6
0.001250	-5.900792	-1.963787E-6
0.001300	-6.428090	-2.125528E-6
0.001350	-6.957515	-2.323037E-6
0.001400	-7.486940	-2.492554E-6
0.001450	-7.999355	-2.655849E-6
0.001500	-8.526653	-2.816034E-6
0.001550	-9.045447	-2.990216E-6
0.001600	-9.570619	-3.183060E-6
0.001650	-10.095792	-3.349466E-6
0.001700	-10.616712	-3.512762E-6
0.001750	-11.144011	-3.686943E-6
0.001800	-11.662805	-3.882898E-6
0.001850	-12.185851	-4.057080E-6
0.001900	-12.706771	-4.207934E-6
0.001950	-13.234070	-4.380560E-6
0.002000	-13.750738	-4.574960E-6
0.002050	-14.275911	-4.753807E-6
0.002100	-14.792579	-4.901550E-6
0.002150	-15.311373	-5.077287E-6
0.002200	-15.838673	-5.260800E-6
0.002250	-16.357467	-5.447424E-6
0.002300	-16.886892	-5.599833E-6
0.002350	-17.409939	-5.763128E-6
0.002400	-17.926608	-5.945086E-6
0.002450	-18.443276	-6.128599E-6
0.002500	-18.970575	-6.304336E-6
0.002550	-19.495749	-6.452079E-6
0.002600	-20.018796	-6.649589E-6
0.002650	-20.541843	-6.828436E-6
0.002700	-21.060638	-6.991732E-6
0.002750	-21.587938	-7.153472E-6
0.002800	-22.102480	-7.327654E-6
0.002850	-22.623401	-7.520498E-6
0.002900	-23.152827	-7.685348E-6
0.002950	-23.682254	-7.854864E-6
0.003000	-24.203175	-8.025936E-6
0.003050	-24.717718	-8.214114E-6
0.003100	-25.245018	-8.389851E-6
0.003150	-25.763813	-8.539150E-6
0.003200	-26.152910	-8.606023E-6
0.003250	-25.638367	-8.431841E-6
0.003300	-25.125950	-8.257660E-6
0.003350	-24.611407	-8.081923E-6
0.003400	-24.081981	-7.937290E-6
0.003450	-23.544050	-7.778660E-6
0.003500	-22.997614	-7.581150E-6
0.003550	-22.415033	-7.383641E-6
0.003600	-21.862219	-7.167469E-6
0.003650	-21.315783	-6.929524E-6
0.003700	-20.820376	-6.702466E-6
0.003750	-20.350484	-6.520508E-6
0.003800	-19.878466	-6.363433E-6
0.003850	-19.419205	-6.301225E-6
0.003900	-18.932304	-6.204803E-6
0.003950	-18.430519	-6.100605E-6
0.004000	-17.888336	-6.019735E-6
0.004050	-17.314260	-5.738245E-6
0.004100	-16.716796	-5.578060E-6
0.004150	-16.119332	-5.291904E-6
0.004200	-15.560140	-5.077287E-6
0.004250	-15.015831	-4.837787E-6
0.004300	-14.535308	-4.601398E-6
0.004350	-14.076048	-4.433437E-6
0.004400	-13.606156	-4.248369E-6
0.004450	-13.134139	-4.190826E-6
0.004500	-12.655742	-4.123953E-6
0.004550	-12.122065	-4.013534E-6
0.004600	-11.639416	-3.926443E-6
0.004650	-11.063215	-3.648063E-6
0.004700	-10.478509	-3.511206E-6
0.004750	-9.878919	-3.231271E-6
0.004800	-9.294213	-2.996437E-6
0.004850	-8.752031	-2.756937E-6
0.004900	-8.269382	-2.518992E-6
0.004950	-7.803744	-2.363472E-6
0.005000	-7.333853	-2.161297E-6
0.005050	-6.876719	-2.097534E-6
0.005100	-6.387692	-2.035326E-6
0.005150	-5.877404	-1.903135E-6
0.005200	-5.384125	-1.805157E-6
0.005250	-4.814302	-1.755391E-6
0.005300	-4.244480	-1.417914E-6
0.005350	-3.651269	-1.249953E-6
0.005400	-3.055933	-9.653518E-7
0.005450	-2.498868	-7.538452E-7
0.005500	-1.954560	-5.221210E-7
0.005550	-1.463407	-2.686241E-7
0.005600	-1.004148	-1.239909E-7
0.005650	-0.527879	8.129491E-8
0.005700	-0.121774	1.435027E-7
0.005750	0.369378	2.243729E-7
0.005800	0.875414	3.441230E-7
0.005850	1.366567	4.125516E-7
0.005900	1.934262	3.845581E-7
0.005950	2.508337	8.262337E-7
0.006000	3.105799	1.015968E-6
0.006050	3.703261	1.281906E-6
0.006100	4.251821	1.505854E-6
0.006150	4.781245	1.776459E-6
0.006200	5.240504	1.927313E-6
0.006250	5.710394	2.131043E-6
0.006300	6.165401	2.236797E-6
0.006350	6.641670	2.291229E-6
0.006400	7.145579	2.410979E-6
0.006450	7.645236	2.491849E-6
0.006500	8.232067	2.737570E-6
0.006550	8.814646	2.888424E-6
0.006600	9.422739	3.149697E-6
0.006650	9.992560	3.381421E-6
0.006700	10.541120	3.594483E-6
0.006750	11.047155	3.872864E-6
0.006800	11.521297	4.017497E-6
0.006850	11.989061	4.236780E-6
0.006900	12.467456	4.381413E-6
0.006950	12.930967	4.445176E-6
0.007000	13.417867	4.536933E-6
0.007050	13.923902	4.662904E-6
0.007100	14.415054	4.739108E-6
0.007150	14.974244	4.843306E-6
0.007200	15.537686	5.163677E-6
0.007250	16.109634	5.311421E-6
0.007300	16.690086	5.507376E-6
0.007350	17.279043	5.781090E-6
0.007400	17.825475	5.983266E-6
0.007450	18.369782	6.197883E-6
0.007500	18.880070	6.456046E-6
0.007550	19.364843	6.634894E-6
0.007600	19.828354	6.777972E-6
0.007650	20.308874	7.005031E-6
0.007700	20.787269	7.158996E-6
0.007750	21.267789	7.210317E-6
0.007800	21.756815	7.297408E-6
0.007850	22.262850	7.438931E-6
0.007900	22.802904	7.555571E-6
0.007950	23.281298	7.647328E-6
0.008000	23.829857	7.791961E-6
0.008050	24.389047	7.935039E-6
0.008100	24.920596	8.294290E-6
0.008150	25.452145	8.454476E-6
0.008200	25.834861	8.440479E-6
0.008250	25.330952	8.309842E-6
0.008300	24.801529	8.246079E-6
0.008350	24.344397	8.120108E-6
0.008400	23.844740	7.874387E-6
0.008450	23.264289	7.662880E-6
0.008500	22.745496	7.555571E-6
0.008550	22.262850	7.370502E-6
0.008600	21.731300	7.180768E-6
0.008650	21.193372	7.011252E-6
0.008700	20.672454	6.857287E-6
0.008750	20.166419	6.661332E-6
0.008800	19.632743	6.484040E-6
0.008850	19.107573	6.330075E-6
0.008900	18.590907	6.162114E-6
0.008950	18.084872	5.969269E-6
0.009000	17.549070	5.791977E-6
0.009050	17.023899	5.647343E-6
0.009100	16.513611	5.463830E-6
0.009150	16.005450	5.266320E-6
0.009200	15.467522	5.106135E-6
0.009250	14.946603	4.959946E-6
0.009300	14.438442	4.777988E-6
0.009350	13.906892	4.582033E-6
0.009400	13.381721	4.424958E-6
0.009450	12.865055	4.272549E-6
0.009500	12.346263	4.089036E-6
0.009550	11.825344	3.893081E-6
0.009600	11.291668	3.729785E-6
0.009650	10.775002	3.571155E-6
0.009700	10.249830	3.390753E-6
0.009750	9.731038	3.204129E-6
0.009800	9.201614	3.026837E-6
0.009850	8.680695	2.879093E-6
0.009900	8.166155	2.695580E-6
0.009950	7.692013	2.543948E-6

