LabVIEW Measurement	
Writer_Version	2
Reader_Version	2
Separator	Tab
Decimal_Separator	.
Multi_Headings	Yes
X_Columns	One
Time_Pref	Relative
Operator	e014
Description	Hysteresis Loop Data
Date	2015/09/03
Time	16:06:15.3635659217834472656
***End_of_Header***	
	
Channels	2		
Samples	200	200	
Date	2015/09/03	2015/09/03	
Time	16:06:15.3635659217834472656	16:06:15.3635659217834472656	
Y_Unit_Label	V	C	
X_Dimension	Time	Time	
X0	0.0000000000000000E+0	0.0000000000000000E+0	
Delta_X	5.000000E-5	5.000000E-5	
***End_of_Header***			
X_Value	Applied Voltage	Charge	Comment
0.000000	0.890298	4.094412E-7	Source: DAQ NI USB-6211 | Sample Length: 1.00E+3 ms | Sample Rate: 20.0 kHz | Sense Capacitance: 4.73E+3 nF
5.000000E-5	0.371505	1.543891E-7
0.000100	-0.143036	-2.290321E-8
0.000150	-0.629936	-3.354975E-7
0.000200	-1.146603	-5.298970E-7
0.000250	-1.688785	-7.911699E-7
0.000300	-2.186316	-1.067995E-6
0.000350	-2.726371	-1.260839E-6
0.000400	-3.245165	-1.517446E-6
0.000450	-3.761832	-1.786495E-6
0.000500	-4.291256	-2.016664E-6
0.000550	-4.818555	-2.257719E-6
0.000600	-5.337348	-2.492554E-6
0.000650	-5.854015	-2.744495E-6
0.000700	-6.381314	-3.001102E-6
0.000750	-6.910738	-3.225050E-6
0.000800	-7.444415	-3.472326E-6
0.000850	-7.948326	-3.735154E-6
0.000900	-8.473498	-3.980875E-6
0.000950	-9.005049	-4.215710E-6
0.001000	-9.517464	-4.452099E-6
0.001050	-10.053268	-4.697820E-6
0.001100	-10.561431	-4.962203E-6
0.001150	-11.090856	-5.183041E-6
0.001200	-11.613902	-5.427206E-6
0.001250	-12.128444	-5.677593E-6
0.001300	-12.653616	-5.923313E-6
0.001350	-13.172410	-6.186141E-6
0.001400	-13.708214	-6.388316E-6
0.001450	-14.227008	-6.651144E-6
0.001500	-14.737298	-6.907751E-6
0.001550	-15.266723	-7.145696E-6
0.001600	-15.794022	-7.382085E-6
0.001650	-16.304312	-7.615365E-6
0.001700	-16.835863	-7.885968E-6
0.001750	-17.352532	-8.128579E-6
0.001800	-17.875579	-8.357192E-6
0.001850	-18.400752	-8.592026E-6
0.001900	-18.913168	-8.851744E-6
0.001950	-19.438341	-9.100575E-6
0.002000	-19.967767	-9.324523E-6
0.002050	-20.492940	-9.567133E-6
0.002100	-21.001104	-9.823740E-6
0.002150	-21.526278	-1.007257E-5
0.002200	-22.055704	-1.030741E-5
0.002250	-22.568120	-1.054224E-5
0.002300	-23.118808	-1.079885E-5
0.002350	-23.616341	-1.106478E-5
0.002400	-24.156398	-1.127474E-5
0.002450	-24.670941	-1.152823E-5
0.002500	-25.183358	-1.177862E-5
0.002550	-25.710658	-1.201656E-5
0.002600	-26.220948	-1.205544E-5
0.002650	-25.661755	-1.193725E-5
0.002700	-25.232261	-1.160288E-5
0.002750	-24.596524	-1.132761E-5
0.002800	-24.179787	-1.125141E-5
0.002850	-23.648234	-1.077085E-5
0.002900	-22.999740	-1.076619E-5
0.002950	-22.674430	-1.027786E-5
0.003000	-21.913248	-1.016744E-5
0.003050	-21.655976	-9.934159E-6
0.003100	-20.899046	-9.627785E-6
0.003150	-20.565231	-9.568688E-6
0.003200	-19.938000	-9.030591E-6
0.003250	-19.442594	-9.133234E-6
0.003300	-18.949313	-8.568698E-6
0.003350	-18.307199	-8.598247E-6
0.003400	-17.960627	-8.052374E-6
0.003450	-17.222833	-7.985501E-6
0.003500	-16.957057	-7.742890E-6
0.003550	-16.191623	-7.434962E-6
0.003600	-15.864187	-7.358758E-6
0.003650	-15.224199	-6.839323E-6
0.003700	-14.730919	-6.988621E-6
0.003750	-14.263154	-6.357212E-6
0.003800	-13.597651	-6.389872E-6
0.003850	-13.276594	-5.870437E-6
0.003900	-12.515413	-5.786456E-6
0.003950	-12.251763	-5.562508E-6
0.004000	-11.511844	-5.231252E-6
0.004050	-11.163147	-5.170599E-6
0.004100	-10.535916	-4.643388E-6
0.004150	-10.036258	-4.882888E-6
0.004200	-9.559988	-4.162833E-6
0.004250	-8.917875	-4.203268E-6
0.004300	-8.554294	-3.638732E-6
0.004350	-7.820753	-3.662060E-6
0.004400	-7.535842	-3.234382E-6
0.004450	-6.772535	-3.091304E-6
0.004500	-6.494003	-2.870466E-6
0.004550	-5.754084	-2.540765E-6
0.004600	-5.405387	-2.509661E-6
0.004650	-4.782409	-1.948235E-6
0.004700	-4.276373	-2.127083E-6
0.004750	-3.817113	-1.456794E-6
0.004800	-3.134602	-1.512781E-6
0.004850	-2.819924	-9.995661E-7
0.004900	-2.067249	-8.938128E-7
0.004950	-1.790842	-6.885270E-7
0.005000	-1.072186	-3.339424E-7
0.005050	-0.695849	-3.215008E-7
0.005100	-0.104765	1.979346E-7
0.005150	0.350243	9.995726E-8
0.005200	0.883919	7.344772E-7
0.005250	1.462246	6.862661E-7
0.005300	1.878981	1.236806E-6
0.005350	2.559365	1.137273E-6
0.005400	2.888927	1.681592E-6
0.005450	3.630971	1.754686E-6
0.005500	3.907377	2.047063E-6
0.005550	4.668556	2.291229E-6
0.005600	4.983234	2.403203E-6
0.005650	5.642356	2.858875E-6
0.005700	6.090984	2.821551E-6
0.005750	6.614029	3.381421E-6
0.005800	7.239132	3.339431E-6
0.005850	7.598460	3.886860E-6
0.005900	8.331999	3.947513E-6
0.005950	8.597774	4.218117E-6
0.006000	9.356827	4.498053E-6
0.006050	9.692766	4.577368E-6
0.006100	10.330626	5.101469E-6
0.006150	10.821778	4.987940E-6
0.006200	11.304425	5.575804E-6
0.006250	11.952916	5.543145E-6
0.006300	12.293108	6.081244E-6
0.006350	13.035151	6.152783E-6
0.006400	13.294547	6.398504E-6
0.006450	14.047221	6.700212E-6
0.006500	14.389539	6.774862E-6
0.006550	15.021020	7.305184E-6
0.006600	15.512172	7.163661E-6
0.006650	15.994819	7.765523E-6
0.006700	16.624174	7.737529E-6
0.006750	16.983501	8.300511E-6
0.006800	17.712787	8.288069E-6
0.006850	18.010455	8.693976E-6
0.006900	18.773760	8.835499E-6
0.006950	19.020399	9.102993E-6
0.007000	19.796461	9.358046E-6
0.007050	20.098381	9.487127E-6
0.007100	20.783016	9.907031E-6
0.007150	21.199751	9.902365E-6
0.007200	21.765320	1.047779E-5
0.007250	22.326636	1.044980E-5
0.007300	22.741244	1.096768E-5
0.007350	23.423753	1.091324E-5
0.007400	23.751188	1.144512E-5
0.007450	24.493231	1.145756E-5
0.007500	24.793024	1.193812E-5
0.007550	25.524436	1.189302E-5
0.007600	25.849744	1.223827E-5
0.007650	25.428757	1.177016E-5
0.007700	24.916344	1.166441E-5
0.007750	24.331640	1.141557E-5
0.007800	23.870255	1.107499E-5
0.007850	23.338705	1.092724E-5
0.007900	22.785894	1.068463E-5
0.007950	22.301121	1.038914E-5
0.008000	21.769572	1.018386E-5
0.008050	21.238023	9.917917E-6
0.008100	20.729861	9.679972E-6
0.008150	20.198312	9.460689E-6
0.008200	19.679520	9.177643E-6
0.008250	19.171359	8.945918E-6
0.008300	18.635557	8.729746E-6
0.008350	18.123143	8.473138E-6
0.008400	17.606477	8.224306E-6
0.008450	17.074928	7.978585E-6
0.008500	16.556135	7.746860E-6
0.008550	16.039469	7.513581E-6
0.008600	15.518551	7.253863E-6
0.008650	15.001884	6.998810E-6
0.008700	14.474587	6.779527E-6
0.008750	13.955795	6.536916E-6
0.008800	13.434876	6.283419E-6
0.008850	12.916084	6.025256E-6
0.008900	12.388787	5.799753E-6
0.008950	11.867868	5.564918E-6
0.009000	11.349075	5.306755E-6
0.009050	10.826030	5.061034E-6
0.009100	10.300859	4.819979E-6
0.009150	9.782067	4.592920E-6
0.009200	9.259022	4.334757E-6
0.009250	8.738103	4.085926E-6
0.009300	8.212932	3.844870E-6
0.009350	7.687760	3.610035E-6
0.009400	7.168968	3.368980E-6
0.009450	6.645922	3.110817E-6
0.009500	6.112246	2.869762E-6
0.009550	5.593453	2.634927E-6
0.009600	5.076787	2.400092E-6
0.009650	4.551615	2.140375E-6
0.009700	4.030696	1.882212E-6
0.009750	3.509777	1.667595E-6
0.009800	2.980353	1.414098E-6
0.009850	2.467939	1.162156E-6
0.009900	1.936389	9.117695E-7
0.009950	1.471814	6.940421E-7

