LabVIEW Measurement	
Writer_Version	2
Reader_Version	2
Separator	Tab
Decimal_Separator	.
Multi_Headings	Yes
X_Columns	One
Time_Pref	Relative
Operator	e014
Description	Hysteresis Loop Data
Date	2015/09/03
Time	16:08:15.2894253730773925781
***End_of_Header***	
	
Channels	2		
Samples	200	200	
Date	2015/09/03	2015/09/03	
Time	16:08:15.2894253730773925781	16:08:15.2894253730773925781	
Y_Unit_Label	V	C	
X_Dimension	Time	Time	
X0	0.0000000000000000E+0	0.0000000000000000E+0	
Delta_X	5.000000E-5	5.000000E-5	
***End_of_Header***			
X_Value	Applied Voltage	Charge	Comment
0.000000	-9.651415	-6.344771E-6	Source: DAQ NI USB-6211 | Sample Length: 1.00E+3 ms | Sample Rate: 20.0 kHz | Sense Capacitance: 4.73E+3 nF
5.000000E-5	-9.213417	-5.862661E-6
0.000100	-8.705254	-5.613830E-6
0.000150	-8.078024	-5.329229E-6
0.000200	-7.618764	-4.822236E-6
0.000250	-7.161630	-4.522083E-6
0.000300	-6.515265	-4.277917E-6
0.000350	-6.015607	-3.809804E-6
0.000400	-5.547842	-3.414784E-6
0.000450	-5.005660	-3.245268E-6
0.000500	-4.414576	-2.842472E-6
0.000550	-3.980831	-2.357252E-6
0.000600	-3.483299	-2.113086E-6
0.000650	-2.853943	-1.847148E-6
0.000700	-2.373422	-1.332378E-6
0.000750	-1.931172	-9.793485E-7
0.000800	-1.318826	-9.249167E-7
0.000850	-0.780897	-3.666015E-7
0.000900	-0.345025	6.107736E-8
0.000950	0.118487	3.192399E-7
0.001000	0.764852	5.665160E-7
0.001050	1.279392	1.015968E-6
0.001100	1.700380	1.488747E-6
0.001150	2.206416	1.711140E-6
0.001200	2.852781	1.955306E-6
0.001250	3.363069	2.423420E-6
0.001300	3.786183	2.857320E-6
0.001350	4.317733	3.078158E-6
0.001400	4.955593	3.334765E-6
0.001450	5.431862	3.847980E-6
0.001500	5.863481	4.272549E-6
0.001550	6.424798	4.432734E-6
0.001600	7.056279	4.732887E-6
0.001650	7.517664	5.261655E-6
0.001700	7.962040	5.669116E-6
0.001750	8.514852	5.821526E-6
0.001800	9.137828	6.146562E-6
0.001850	9.588583	6.689326E-6
0.001900	10.026580	7.025249E-6
0.001950	10.641051	7.188544E-6
0.002000	11.227882	7.597561E-6
0.002050	11.655248	8.087449E-6
0.002100	12.135769	8.333170E-6
0.002150	12.767250	8.602219E-6
0.002200	13.262654	9.087441E-6
0.002250	13.715534	9.470020E-6
0.002300	14.278977	9.637982E-6
0.002350	14.863682	1.004389E-5
0.002400	15.305931	1.053067E-5
0.002450	15.794956	1.076861E-5
0.002500	16.415806	1.103300E-5
0.002550	16.904832	1.152599E-5
0.002600	17.359838	1.192879E-5
0.002650	17.923281	1.207653E-5
0.002700	18.512237	1.245289E-5
0.002750	18.954486	1.297388E-5
0.002800	19.426502	1.325538E-5
0.002850	20.051604	1.349177E-5
0.002900	20.568270	1.393344E-5
0.002950	21.012646	1.434713E-5
0.003000	21.546321	1.457419E-5
0.003050	22.167171	1.486656E-5
0.003100	22.626429	1.539222E-5
0.003150	23.070805	1.573437E-5
0.003200	23.668266	1.591166E-5
0.003250	24.252970	1.630823E-5
0.003300	24.688841	1.680434E-5
0.003350	25.158730	1.709050E-5
0.003400	25.773201	1.725846E-5
0.003450	25.592474	1.697853E-5
0.003500	25.056673	1.668459E-5
0.003550	24.520871	1.636733E-5
0.003600	23.995700	1.602985E-5
0.003650	23.470530	1.567838E-5
0.003700	22.936854	1.535334E-5
0.003750	22.411683	1.502053E-5
0.003800	21.897144	1.465039E-5
0.003850	21.380478	1.428958E-5
0.003900	20.861686	1.393966E-5
0.003950	20.338641	1.360530E-5
0.004000	19.815596	1.324760E-5
0.004050	19.309561	1.289146E-5
0.004100	18.780138	1.256020E-5
0.004150	18.257094	1.222739E-5
0.004200	17.736175	1.187902E-5
0.004250	17.213130	1.151044E-5
0.004300	16.687960	1.116363E-5
0.004350	16.169167	1.084326E-5
0.004400	15.650375	1.048245E-5
0.004450	15.135835	1.012009E-5
0.004500	14.612790	9.762398E-6
0.004550	14.091872	9.438916E-6
0.004600	13.570953	9.085886E-6
0.004650	13.056413	8.728191E-6
0.004700	12.529116	8.373605E-6
0.004750	12.003945	8.048569E-6
0.004800	11.480900	7.707980E-6
0.004850	10.959981	7.348730E-6
0.004900	10.436936	6.987924E-6
0.004950	9.909639	6.658222E-6
0.005000	9.386594	6.311413E-6
0.005050	8.865675	5.947497E-6
0.005100	8.346882	5.588246E-6
0.005150	7.821711	5.247658E-6
0.005200	7.298666	4.914846E-6
0.005250	6.779873	4.554040E-6
0.005300	6.252575	4.193234E-6
0.005350	5.729530	3.844870E-6
0.005400	5.210737	3.512058E-6
0.005450	4.691945	3.160583E-6
0.005500	4.168899	2.793557E-6
0.005550	3.645854	2.449859E-6
0.005600	3.118556	2.112381E-6
0.005650	2.595511	1.767127E-6
0.005700	2.072465	1.412543E-6
0.005750	1.551546	1.054848E-6
0.005800	1.028501	7.251460E-7
0.005850	0.501203	3.736717E-7
0.005900	-0.013338	1.286630E-8
0.005950	-0.481102	-3.666015E-7
0.006000	-1.008400	-6.838614E-7
0.006050	-1.531446	-1.024449E-6
0.006100	-2.052365	-1.374368E-6
0.006150	-2.581790	-1.714956E-6
0.006200	-3.111214	-2.036881E-6
0.006250	-3.632134	-2.407018E-6
0.006300	-4.150927	-2.761602E-6
0.006350	-4.676099	-3.111521E-6
0.006400	-5.201271	-3.447443E-6
0.006450	-5.724317	-3.794252E-6
0.006500	-6.243111	-4.161278E-6
0.006550	-6.787419	-4.506531E-6
0.006600	-7.308338	-4.842453E-6
0.006650	-7.825006	-5.189261E-6
0.006700	-8.341673	-5.559398E-6
0.006750	-8.860467	-5.920203E-6
0.006800	-9.387766	-6.251459E-6
0.006850	-9.912938	-6.607599E-6
0.006900	-10.431732	-6.965293E-6
0.006950	-10.950526	-7.319878E-6
0.007000	-11.477825	-7.651134E-6
0.007050	-12.002997	-7.994832E-6
0.007100	-12.521792	-8.349416E-6
0.007150	-13.038459	-8.713331E-6
0.007200	-13.574263	-9.057029E-6
0.007250	-14.095184	-9.391396E-6
0.007300	-14.611852	-9.744425E-6
0.007350	-15.132772	-1.010679E-5
0.007400	-15.653693	-1.045981E-5
0.007450	-16.178866	-1.078640E-5
0.007500	-16.699786	-1.115188E-5
0.007550	-17.220707	-1.150801E-5
0.007600	-17.741628	-1.185638E-5
0.007650	-18.268927	-1.218919E-5
0.007700	-18.794100	-1.253289E-5
0.007750	-19.310769	-1.289836E-5
0.007800	-19.844447	-1.324517E-5
0.007850	-20.369620	-1.358420E-5
0.007900	-20.882036	-1.393101E-5
0.007950	-21.402958	-1.429648E-5
0.008000	-21.921752	-1.466350E-5
0.008050	-22.446926	-1.499165E-5
0.008100	-22.969973	-1.536645E-5
0.008150	-23.493021	-1.571792E-5
0.008200	-24.011816	-1.606784E-5
0.008250	-24.536990	-1.640843E-5
0.008300	-25.062164	-1.674590E-5
0.008350	-25.578833	-1.709582E-5
0.008400	-26.091250	-1.745663E-5
0.008450	-25.878629	-1.716114E-5
0.008500	-25.357707	-1.674124E-5
0.008550	-24.889941	-1.635866E-5
0.008600	-24.358388	-1.614093E-5
0.008650	-23.760923	-1.577235E-5
0.008700	-23.318672	-1.528713E-5
0.008750	-22.829644	-1.501031E-5
0.008800	-22.189655	-1.475837E-5
0.008850	-21.689996	-1.429181E-5
0.008900	-21.243492	-1.388746E-5
0.008950	-20.697056	-1.372105E-5
0.009000	-20.093213	-1.336336E-5
0.009050	-19.642457	-1.283770E-5
0.009100	-19.168313	-1.256710E-5
0.009150	-18.532577	-1.232916E-5
0.009200	-18.043549	-1.184238E-5
0.009250	-17.614055	-1.145669E-5
0.009300	-17.016591	-1.129806E-5
0.009350	-16.444641	-1.086572E-5
0.009400	-16.010895	-1.043027E-5
0.009450	-15.485722	-1.019699E-5
0.009500	-14.866996	-9.878172E-6
0.009550	-14.414114	-9.374289E-6
0.009600	-13.950602	-9.099020E-6
0.009650	-13.327623	-8.847078E-6
0.009700	-12.819460	-8.372744E-6
0.009750	-12.355947	-7.979280E-6
0.009800	-11.807387	-7.820650E-6
0.009850	-11.220554	-7.413189E-6
0.009900	-10.791061	-6.927969E-6
0.009950	-10.287150	-6.715685E-6

