LabVIEW Measurement	
Writer_Version	2
Reader_Version	2
Separator	Tab
Decimal_Separator	.
Multi_Headings	Yes
X_Columns	One
Time_Pref	Relative
Operator	e014
Description	Hysteresis Loop Data
Date	2015/08/20
Time	15:25:08.9507441520690917969
***End_of_Header***	
	
Channels	2		
Samples	114	114	
Date	2015/08/20	2015/08/20	
Time	15:25:08.9507441520690917969	15:25:08.9507441520690917969	
Y_Unit_Label	V	V	
X_Dimension	Time	Time	
X0	0.0000000000000000E+0	0.0000000000000000E+0	
Delta_X	8.000000E-5	8.000000E-5	
***End_of_Header***			
X_Value	Applied Voltage	Sense Voltage	Comment
0.000000	-20.030759	-3.749092
8.000000E-5	-21.021528	-3.780657
0.000160	-21.946538	-3.810906
0.000240	-22.919772	-3.839840
0.000320	-23.836015	-3.869431
0.000400	-24.837744	-3.895077
0.000480	-25.699188	-3.922696
0.000560	-26.707494	-3.946369
0.000640	-26.990258	-3.985167
0.000720	-26.023600	-3.963466
0.000800	-25.122700	-3.937820
0.000880	-24.131931	-3.911517
0.000960	-23.202536	-3.880610
0.001040	-22.266566	-3.850361
0.001120	-21.277988	-3.816824
0.001200	-20.302563	-3.781972
0.001280	-19.335906	-3.745147
0.001360	-18.378016	-3.707664
0.001440	-17.341217	-3.666894
0.001520	-16.341680	-3.624150
0.001600	-15.381599	-3.578119
0.001680	-14.417135	-3.531430
0.001760	-13.415407	-3.482769
0.001840	-12.424639	-3.429504
0.001920	-11.438256	-3.376239
0.002000	-10.445296	-3.319687
0.002080	-9.467681	-3.259188
0.002160	-8.476913	-3.198690
0.002240	-7.492722	-3.132274
0.002320	-6.497571	-3.064542
0.002400	-5.491461	-2.991550
0.002480	-4.505078	-2.914612
0.002560	-3.540615	-2.833728
0.002640	-2.617800	-2.750215
0.002720	-1.620457	-2.660782
0.002800	-0.686682	-2.568720
0.002880	0.376419	-2.483891
0.002960	1.158948	-2.391829
0.003040	2.097107	-2.300424
0.003120	3.041842	-2.209677
0.003200	4.028223	-2.121560
0.003280	4.979534	-2.035416
0.003360	5.952763	-1.957162
0.003440	6.917225	-1.884170
0.003520	7.840040	-1.811835
0.003600	8.694903	-1.746077
0.003680	9.692244	-1.685578
0.003760	10.709313	-1.626395
0.003840	11.634319	-1.572473
0.003920	12.570285	-1.519866
0.004000	13.541322	-1.470547
0.004080	14.551814	-1.421885
0.004160	15.522851	-1.377169
0.004240	16.421553	-1.333111
0.004320	17.407934	-1.288395
0.004400	18.392122	-1.248282
0.004480	19.295209	-1.208169
0.004560	20.325428	-1.168056
0.004640	21.303040	-1.133204
0.004720	22.291613	-1.095064
0.004800	23.310872	-1.062185
0.004880	24.255605	-1.027990
0.004960	25.347199	-0.995768
0.005040	26.280972	-0.965519
0.005120	27.284888	-0.935270
0.005200	26.993358	-0.941188
0.005280	25.954371	-0.968149
0.005360	24.987718	-0.995768
0.005440	23.856669	-1.027332
0.005520	22.999614	-1.054951
0.005600	22.039538	-1.088488
0.005680	21.004934	-1.120710
0.005760	20.036090	-1.154905
0.005840	19.021214	-1.189757
0.005920	18.094016	-1.227897
0.006000	17.033109	-1.267352
0.006080	16.108104	-1.308123
0.006160	15.099803	-1.349551
0.006240	14.122191	-1.395582
0.006320	13.122658	-1.440955
0.006400	12.248067	-1.489617
0.006480	11.187160	-1.540251
0.006560	10.338872	-1.595489
0.006640	9.326187	-1.651384
0.006720	8.344190	-1.713197
0.006800	7.471791	-1.776983
0.006880	6.450338	-1.843400
0.006960	5.494644	-1.916392
0.007040	4.571829	-1.990699
0.007120	3.592023	-2.068953
0.007200	2.581530	-2.153124
0.007280	1.704746	-2.239268
0.007360	0.795083	-2.327385
0.007440	0.045433	-2.397089
0.007520	-1.017668	-2.485206
0.007600	-1.929524	-2.573981
0.007680	-2.861107	-2.666043
0.007760	-3.803651	-2.758763
0.007840	-4.772497	-2.848195
0.007920	-5.778608	-2.932367
0.008000	-6.795678	-3.013908
0.008080	-7.777677	-3.088215
0.008160	-8.768444	-3.160550
0.008240	-9.761404	-3.228939
0.008320	-10.741211	-3.292725
0.008400	-11.714443	-3.351251
0.008480	-12.711787	-3.408461
0.008560	-13.698171	-3.461068
0.008640	-14.706474	-3.511703
0.008720	-15.736698	-3.559049
0.008800	-16.751578	-3.602450
0.008880	-17.746730	-3.647166
0.008960	-18.719963	-3.687936
0.009040	-19.420296	-3.721474

