LabVIEW Measurement	
Writer_Version	2
Reader_Version	2
Separator	Tab
Decimal_Separator	.
Multi_Headings	Yes
X_Columns	One
Time_Pref	Relative
Operator	e014
Description	Hysteresis Loop Data
Date	2015/09/03
Time	11:42:57.6579890251159667969
***End_of_Header***	
	
Channels	2		
Samples	200	200	
Date	2015/09/03	2015/09/03	
Time	11:42:57.6579890251159667969	11:42:57.6579890251159667969	
Y_Unit_Label	V	C	
X_Dimension	Time	Time	
X0	0.0000000000000000E+0	0.0000000000000000E+0	
Delta_X	5.000000E-5	5.000000E-5	
***End_of_Header***			
X_Value	Applied Voltage	Charge	Comment
0.000000	-5.877404	-7.884754E-7	Source: DAQ NI USB-6211 | Sample Length: 1.00E+3 ms | Sample Rate: 20.0 kHz | Sense Capacitance: 666 nF
5.000000E-5	-4.937622	-7.043884E-7
0.000100	-4.803671	-6.198634E-7
0.000150	-3.910666	-5.767250E-7
0.000200	-3.810735	-4.514703E-7
0.000250	-2.900720	-4.365799E-7
0.000300	-2.734876	-2.830772E-7
0.000350	-1.897153	-2.988435E-7
0.000400	-1.637756	-1.227862E-7
0.000450	-0.910595	-1.505962E-7
0.000500	-0.542762	3.290633E-8
0.000550	0.092972	-8.918247E-9
0.000600	0.477815	1.785259E-7
0.000650	1.077403	1.226868E-7
0.000700	1.583439	3.379411E-7
0.000750	2.074592	3.064084E-7
0.000800	2.691190	4.896921E-7
0.000850	3.069654	4.642908E-7
0.000900	3.798940	6.396914E-7
0.000950	4.081725	6.149470E-7
0.001000	4.889681	7.822454E-7
0.001050	5.093796	7.780849E-7
0.001100	5.965538	9.208579E-7
0.001150	6.118625	9.377191E-7
0.001200	7.032891	1.052463E-6
0.001250	7.145579	1.108740E-6
0.001300	8.093864	1.189105E-6
0.001350	8.223563	1.270126E-6
0.001400	9.125071	1.324871E-6
0.001450	9.225002	1.434797E-6
0.001500	10.154151	1.467425E-6
0.001550	10.262588	1.596403E-6
0.001600	11.178979	1.606038E-6
0.001650	11.336318	1.757789E-6
0.001700	12.195302	1.754285E-6
0.001750	12.397291	1.915891E-6
0.001800	13.220130	1.897278E-6
0.001850	13.464643	2.071803E-6
0.001900	14.232201	2.047934E-6
0.001950	14.542626	2.227715E-6
0.002000	15.261281	2.193335E-6
0.002050	15.609977	2.380342E-6
0.002100	16.277603	2.345525E-6
0.002150	16.675202	2.530999E-6
0.002200	17.285421	2.481510E-6
0.002250	17.744680	2.681874E-6
0.002300	18.316627	2.623188E-6
0.002350	18.805653	2.837786E-6
0.002400	19.347833	2.756546E-6
0.002450	19.860247	2.988005E-6
0.002500	20.362029	2.958005E-6
0.002550	20.929724	3.142823E-6
0.002600	21.403866	3.105158E-6
0.002650	21.984318	3.292604E-6
0.002700	22.437198	3.266545E-6
0.002750	23.038912	3.445231E-6
0.002800	23.479034	3.411071E-6
0.002850	24.072243	3.594137E-6
0.002900	24.533628	3.567859E-6
0.002950	25.094944	3.745888E-6
0.003000	25.626493	3.692677E-6
0.003050	25.781706	3.794283E-6
0.003100	25.528688	3.670560E-6
0.003150	24.695219	3.580122E-6
0.003200	24.406056	3.578370E-6
0.003250	23.821352	3.407129E-6
0.003300	23.130338	3.400560E-6
0.003350	22.936854	3.308370E-6
0.003400	22.116142	3.190560E-6
0.003450	21.746184	3.198224E-6
0.003500	21.267789	3.031582E-6
0.003550	20.529999	3.003772E-6
0.003600	20.323758	2.946837E-6
0.003650	19.539191	2.810633E-6
0.003700	19.086311	2.810633E-6
0.003750	18.703595	2.658006E-6
0.003800	17.929659	2.608955E-6
0.003850	17.697904	2.578955E-6
0.003900	16.964365	2.390415E-6
0.003950	16.420059	2.424575E-6
0.004000	16.130896	2.288152E-6
0.004050	15.305931	2.217423E-6
0.004100	15.059292	2.208664E-6
0.004150	14.408675	2.031730E-6
0.004200	13.770816	2.035671E-6
0.004250	13.534808	1.922679E-6
0.004300	12.699212	1.829832E-6
0.004350	12.407922	1.828957E-6
0.004400	11.833849	1.652023E-6
0.004450	11.134329	1.645235E-6
0.004500	10.942971	1.558738E-6
0.004550	10.109501	1.443118E-6
0.004600	9.741669	1.445965E-6
0.004650	9.256895	1.275163E-6
0.004700	8.506347	1.257207E-6
0.004750	8.331999	1.194360E-6
0.004800	7.526169	1.058813E-6
0.004850	7.090298	1.055748E-6
0.004900	6.682068	9.026828E-7
0.004950	5.901752	8.641428E-7
0.005000	5.693385	8.223182E-7
0.005050	4.938584	6.539249E-7
0.005100	4.434674	6.734138E-7
0.005150	4.088104	5.304219E-7
0.005200	3.271643	4.739258E-7
0.005250	3.054770	4.469916E-7
0.005300	2.344619	2.483796E-7
0.005350	1.787555	2.923939E-7
0.005400	1.487760	1.555334E-7
0.005450	0.660668	8.480384E-8
0.005500	0.420407	6.991341E-8
0.005550	-0.255725	-1.092096E-7
0.005600	-0.759635	-8.227548E-8
0.005650	-1.104079	-2.283330E-7
0.005700	-1.907784	-2.806684E-7
0.005750	-2.126782	-3.058508E-7
0.005800	-2.847565	-4.939518E-7
0.005850	-3.391873	-4.652658E-7
0.005900	-3.710803	-6.038781E-7
0.005950	-4.531517	-6.625638E-7
0.006000	-4.744137	-6.842425E-7
0.006050	-5.452163	-8.732194E-7
0.006100	-6.019859	-8.445334E-7
0.006150	-6.311149	-9.759194E-7
0.006200	-7.155252	-1.050590E-6
0.006250	-7.391260	-1.063510E-6
0.006300	-8.058888	-1.244823E-6
0.006350	-8.656352	-1.226210E-6
0.006400	-8.922127	-1.353216E-6
0.006450	-9.761978	-1.432048E-6
0.006500	-10.012870	-1.444529E-6
0.006550	-10.678372	-1.616864E-6
0.006600	-11.277962	-1.606134E-6
0.006650	-11.539485	-1.731607E-6
0.006700	-12.372957	-1.814818E-6
0.006750	-12.630228	-1.819855E-6
0.006800	-13.276594	-1.993065E-6
0.006850	-13.908077	-1.988467E-6
0.006900	-14.150465	-2.107371E-6
0.006950	-14.986064	-2.191458E-6
0.007000	-15.234830	-2.197370E-6
0.007050	-15.889702	-2.373865E-6
0.007100	-16.512680	-2.367734E-6
0.007150	-16.769951	-2.487295E-6
0.007200	-17.607677	-2.568535E-6
0.007250	-17.860695	-2.575761E-6
0.007300	-18.494305	-2.753351E-6
0.007350	-19.138546	-2.747877E-6
0.007400	-19.370303	-2.856489E-6
0.007450	-20.214407	-2.952620E-6
0.007500	-20.505698	-2.954591E-6
0.007550	-21.090405	-3.129115E-6
0.007600	-21.766539	-3.128677E-6
0.007650	-21.979160	-3.226121E-6
0.007700	-22.808382	-3.334077E-6
0.007750	-23.150701	-3.334296E-6
0.007800	-23.699263	-3.502907E-6
0.007850	-24.405165	-3.511666E-6
0.007900	-24.590145	-3.595753E-6
0.007950	-25.412988	-3.717504E-6
0.008000	-25.787202	-3.710716E-6
0.008050	-26.040221	-3.818671E-6
0.008100	-25.625610	-3.629476E-6
0.008150	-25.036649	-3.689475E-6
0.008200	-24.528485	-3.467871E-6
0.008250	-24.041583	-3.504221E-6
0.008300	-23.429235	-3.316121E-6
0.008350	-23.050769	-3.340208E-6
0.008400	-22.308722	-3.163713E-6
0.008450	-22.028063	-3.185830E-6
0.008500	-21.213725	-3.024006E-6
0.008550	-21.022366	-3.022254E-6
0.008600	-20.135737	-2.887803E-6
0.008650	-20.008165	-2.855394E-6
0.008700	-19.070507	-2.757512E-6
0.008750	-18.940809	-2.682622E-6
0.008800	-18.030792	-2.622841E-6
0.008850	-17.937239	-2.511163E-6
0.008900	-17.020843	-2.494083E-6
0.008950	-16.867757	-2.344084E-6
0.009000	-16.025779	-2.351530E-6
0.009050	-15.764255	-2.178100E-6
0.009100	-15.037093	-2.211604E-6
0.009150	-14.647997	-2.023722E-6
0.009200	-14.056912	-2.081094E-6
0.009250	-13.544496	-1.863431E-6
0.009300	-13.063974	-1.892774E-6
0.009350	-12.415481	-1.711681E-6
0.009400	-12.079541	-1.735111E-6
0.009450	-11.303476	-1.565185E-6
0.009500	-11.078098	-1.577010E-6
0.009550	-10.214859	-1.434237E-6
0.009600	-10.068151	-1.405332E-6
0.009650	-9.136874	-1.300005E-6
0.009700	-9.022059	-1.235845E-6
0.009750	-8.090781	-1.174312E-6
0.009800	-7.999355	-1.065481E-6
0.009850	-7.078708	-1.037233E-6
0.009900	-6.949010	-8.970878E-7
0.009950	-6.302644	-8.720150E-7

