LabVIEW Measurement	
Writer_Version	2
Reader_Version	2
Separator	Tab
Decimal_Separator	.
Multi_Headings	Yes
X_Columns	One
Time_Pref	Relative
Operator	e014
Description	Hysteresis Loop Data
Date	2015/09/01
Time	14:35:04.8096280097961425781
***End_of_Header***	
	
Channels	2		
Samples	100	100	
Date	2015/09/01	2015/09/01	
Time	14:35:04.8096280097961425781	14:35:04.8096280097961425781	
Y_Unit_Label	V	C	
X_Dimension	Time	Time	
X0	0.0000000000000000E+0	0.0000000000000000E+0	
Delta_X	1.000000E-5	1.000000E-5	
***End_of_Header***			
X_Value	Applied Voltage	Charge	Comment
0.000000	-20.714066	-1.503999E-9	Source: DAQ NI USB-6211 | Sample Length: 1.00E+3 ms | Sample Rate: 100 kHz | Sense Capacitance: 680 nF
1.000000E-5	-21.760161	-1.503999E-9
2.000000E-5	-22.804129	-1.727579E-9
3.000000E-5	-23.873612	-1.727579E-9
4.000000E-5	-24.917582	-1.951159E-9
5.000000E-5	-25.963677	-1.727579E-9
6.000000E-5	-25.361959	-1.727579E-9
7.000000E-5	-24.309485	-1.280419E-9
8.000000E-5	-23.263390	-1.503999E-9
9.000000E-5	-22.200286	-1.056839E-9
1.000000E-4	-21.145686	-1.727579E-9
0.000110	-20.105970	-1.503999E-9
0.000120	-19.042867	-1.280419E-9
0.000130	-17.996772	-1.503999E-9
0.000140	-16.952805	-1.056839E-9
0.000150	-15.898206	-1.056839E-9
0.000160	-14.843608	-8.332593E-10
0.000170	-13.795389	-1.056839E-9
0.000180	-12.749295	-1.056839E-9
0.000190	-11.701076	-8.332593E-10
0.000200	-10.648605	-8.332593E-10
0.000210	-9.587629	-6.096794E-10
0.000220	-8.543663	-8.332593E-10
0.000230	-7.495444	-6.096794E-10
0.000240	-6.440847	-6.096794E-10
0.000250	-5.384125	-3.860994E-10
0.000260	-4.333780	-1.625195E-10
0.000270	-3.285563	6.106045E-11
0.000280	-2.233092	-1.625195E-10
0.000290	-1.184875	6.106045E-11
0.000300	-0.134531	-1.625195E-10
0.000310	0.875414	6.106045E-11
0.000320	1.923631	6.106045E-11
0.000330	2.969722	2.846404E-10
0.000340	4.028570	2.846404E-10
0.000350	5.078913	2.846404E-10
0.000360	6.127130	2.846404E-10
0.000370	7.179599	7.318003E-10
0.000380	8.229941	5.082203E-10
0.000390	9.282410	9.553802E-10
0.000400	10.330626	7.318003E-10
0.000410	11.380968	9.553802E-10
0.000420	12.427058	1.178960E-9
0.000430	13.473148	1.178960E-9
0.000440	14.525616	1.849700E-9
0.000450	15.571706	1.402540E-9
0.000460	16.617795	1.402540E-9
0.000470	17.666011	1.402540E-9
0.000480	18.709974	1.626120E-9
0.000490	19.758189	1.849700E-9
0.000500	20.808531	1.849700E-9
0.000510	21.852494	1.849700E-9
0.000520	22.900709	2.073280E-9
0.000530	23.944672	1.849700E-9
0.000540	24.997139	2.073280E-9
0.000550	26.043228	2.296860E-9
0.000560	25.441514	2.073280E-9
0.000570	24.397552	1.849700E-9
0.000580	23.345084	1.626120E-9
0.000590	22.301121	1.849700E-9
0.000600	21.259285	1.849700E-9
0.000610	20.208943	1.849700E-9
0.000620	19.160728	1.626120E-9
0.000630	18.118891	1.626120E-9
0.000640	17.064297	1.626120E-9
0.000650	16.024586	1.178960E-9
0.000660	14.978496	1.402540E-9
0.000670	13.926028	9.553802E-10
0.000680	12.877812	1.402540E-9
0.000690	11.829596	7.318003E-10
0.000700	10.777128	1.402540E-9
0.000710	9.731038	7.318003E-10
0.000720	8.680695	7.318003E-10
0.000730	7.626100	5.082203E-10
0.000740	6.571505	7.318003E-10
0.000750	5.527541	7.318003E-10
0.000760	4.477198	7.318003E-10
0.000770	3.424729	5.082203E-10
0.000780	2.368007	7.318003E-10
0.000790	1.321917	5.082203E-10
0.000800	0.273699	6.106045E-11
0.000810	-0.740499	-3.860994E-10
0.000820	-1.790842	-1.625195E-10
0.000830	-2.839060	2.846404E-10
0.000840	-3.889404	-1.625195E-10
0.000850	-4.941874	-1.625195E-10
0.000860	-5.992219	-6.096794E-10
0.000870	-7.051068	-3.860994E-10
0.000880	-8.099286	-8.332593E-10
0.000890	-9.147505	-6.096794E-10
0.000900	-10.208481	-8.332593E-10
0.000910	-11.252447	-8.332593E-10
0.000920	-12.304919	-1.056839E-9
0.000930	-13.359516	-8.332593E-10
0.000940	-14.403483	-8.332593E-10
0.000950	-15.453829	-1.503999E-9
0.000960	-16.510554	-1.280419E-9
0.000970	-17.558774	-1.056839E-9
0.000980	-18.686727	-1.168629E-9
0.000990	-19.657341	-1.503999E-9

