LabVIEW Measurement	
Writer_Version	2
Reader_Version	2
Separator	Tab
Decimal_Separator	.
Multi_Headings	Yes
X_Columns	One
Time_Pref	Relative
Operator	e014
Description	Hysteresis Loop Data
Date	2015/09/01
Time	16:22:15.0654177665710449219
***End_of_Header***	
	
Channels	2		
Samples	200	200	
Date	2015/09/01	2015/09/01	
Time	16:22:15.0654177665710449219	16:22:15.0654177665710449219	
Y_Unit_Label	V	C	
X_Dimension	Time	Time	
X0	0.0000000000000000E+0	0.0000000000000000E+0	
Delta_X	5.000000E-5	5.000000E-5	
***End_of_Header***			
X_Value	Applied Voltage	Charge	Comment
0.000000	-15.849304	3.829323E-8	Source: DAQ NI USB-6211 | Sample Length: 1.00E+3 ms | Sample Rate: 20.0 kHz | Sense Capacitance: 680 nF
5.000000E-5	-13.567885	-7.752118E-8
0.000100	-15.392169	-2.311206E-7
0.000150	-18.239160	-1.693102E-8
0.000200	-16.699786	-1.178868E-8
0.000250	-15.538877	-1.403471E-7
0.000300	-18.925925	-1.271559E-7
0.000350	-19.893350	1.861820E-8
0.000400	-17.573657	-7.416748E-8
0.000450	-18.560217	-2.235189E-7
0.000500	-21.870723	-5.941120E-8
0.000550	-20.735328	-1.871965E-8
0.000600	-19.178944	-1.535383E-7
0.000650	-22.244936	-1.689654E-7
0.000700	-23.680127	-8.211397E-9
0.000750	-21.388074	-8.355783E-8
0.000800	-22.074839	-2.306734E-7
0.000850	-25.515047	-9.093597E-8
0.000900	-24.498718	-3.750037E-8
0.000950	-22.802003	-1.727662E-7
0.001000	-25.936036	-1.908762E-7
0.001050	-27.073559	-3.146371E-8
0.001100	-24.892067	-1.045743E-7
0.001150	-24.536990	-2.422996E-7
0.001200	-26.922598	-1.025621E-7
0.001250	-24.911203	-3.772395E-8
0.001300	-22.123742	-1.647173E-7
0.001350	-23.894875	-2.132342E-7
0.001400	-24.732601	-2.900433E-8
0.001450	-21.534782	-7.103736E-8
0.001500	-20.405766	-1.899819E-7
0.001550	-22.991236	-1.193306E-7
0.001600	-21.885607	-5.304858E-9
0.001650	-18.594237	-1.164241E-7
0.001700	-19.408574	-2.626453E-7
0.001750	-21.213725	-4.554925E-8
0.001800	-18.689916	-2.833359E-8
0.001850	-16.346836	-1.528676E-7
0.001900	-18.538955	-1.513025E-7
0.001950	-18.864265	8.109938E-9
0.002000	-15.585654	-5.426886E-8
0.002050	-14.811715	-1.741077E-7
0.002100	-17.335522	-8.132203E-8
0.002150	-16.032157	2.152474E-8
0.002200	-12.844975	-9.361893E-8
0.002250	-13.701836	-2.364865E-7
0.002300	-15.451703	-1.737817E-8
0.002350	-12.989557	2.744020E-9
0.002400	-10.631595	-1.220136E-7
0.002450	-12.674878	-1.352048E-7
0.002500	-13.157527	3.270373E-8
0.002550	-9.983103	-1.782533E-8
0.002600	-8.954020	-1.352048E-7
0.002650	-11.482077	-6.790724E-8
0.002700	-10.474256	5.439099E-8
0.002750	-7.202028	-4.890295E-8
0.002800	-7.691055	-1.973600E-7
0.002850	-9.761978	-4.634118E-9
0.002900	-7.525211	4.231767E-8
0.002950	-4.827059	-8.221635E-8
0.003000	-6.591808	-1.434773E-7
0.003050	-7.565609	4.768359E-8
0.003100	-4.546401	2.398411E-8
0.003150	-2.902846	-9.361893E-8
0.003200	-5.399008	-6.365922E-8
0.003250	-5.109844	8.323280E-8
0.003300	-1.731309	4.085499E-9
0.003350	-1.369855	-1.182127E-7
0.003400	-3.880899	-7.317078E-9
0.003450	-2.381927	8.971662E-8
0.003500	0.813754	-2.475631E-8
0.003550	-0.066493	-1.665060E-7
0.003600	-1.971570	4.500063E-8
0.003650	0.431038	7.786688E-8
0.003700	3.022877	-4.823221E-8
0.003750	1.085908	-8.780585E-8
0.003800	0.248185	9.217600E-8
0.003850	3.331176	6.065123E-8
0.003900	4.845031	-5.739898E-8
0.003950	2.302095	-1.536596E-8
0.004000	2.803879	1.261602E-7
0.004050	6.178158	3.516311E-8
0.004100	6.197294	-1.005499E-7
0.004150	3.837212	5.059013E-8
0.004200	5.750792	1.228065E-7
0.004250	8.704084	-5.528438E-9
0.004300	7.145579	-9.786695E-8
0.004350	5.974043	1.149812E-7
0.004400	8.959228	9.642402E-8
0.004450	10.587896	-2.587421E-8
0.004500	8.000312	1.571166E-8
0.004550	8.663686	1.576849E-7
0.004600	12.061352	5.617963E-8
0.004650	11.633986	-9.831411E-8
0.004700	9.516292	1.006720E-7
0.004750	11.984809	1.384571E-7
0.004800	14.483092	6.768459E-9
0.004850	12.137895	6.544879E-9
0.004900	11.969925	1.722176E-7
0.004950	15.478153	9.396464E-8
0.005000	15.654627	-4.890295E-8
0.005050	13.186111	1.084973E-7
0.005100	15.414367	1.646159E-7
0.005150	18.165667	2.890287E-8
0.005200	15.890635	2.443127E-8
0.005250	15.629113	1.930106E-7
0.005300	19.156475	1.087209E-7
0.005350	19.135213	-4.420777E-8
0.005400	16.845298	1.438230E-7
0.005450	19.369095	1.757949E-7
0.005500	21.686650	4.008187E-8
0.005550	19.062923	7.115949E-8
0.005600	19.668889	2.209581E-7
0.005650	23.162231	1.000013E-7
0.005700	22.020463	-3.861827E-8
0.005750	20.553387	1.997180E-7
0.005800	23.895769	1.672989E-7
0.005850	24.795150	2.286621E-8
0.005900	22.035347	1.628273E-7
0.005950	24.718607	1.981529E-7
0.006000	26.506739	3.449237E-8
0.006050	23.719295	2.381737E-7
0.006100	27.625119	5.483815E-8
0.006150	23.542820	2.285598E-7
0.006200	26.466341	1.295139E-7
0.006250	24.437949	-1.581312E-8
0.006300	21.999201	2.171572E-7
0.006350	24.410309	1.646159E-7
0.006400	23.976565	1.280512E-8
0.006450	20.315253	1.527662E-7
0.006500	21.584593	2.019538E-7
0.006550	23.191998	5.908617E-8
0.006600	19.649753	6.713505E-8
0.006650	18.758876	2.211817E-7
0.006700	21.259285	1.127454E-7
0.006750	19.724170	-5.002085E-8
0.006800	16.702843	1.623801E-7
0.006850	18.405927	1.684168E-7
0.006900	19.369095	3.270373E-8
0.006950	15.690773	6.847653E-8
0.007000	15.363338	2.044132E-7
0.007050	17.736175	8.390354E-8
0.007100	15.820471	-7.394390E-8
0.007150	13.062791	1.505304E-7
0.007200	14.865808	1.480710E-7
0.007250	15.709908	1.548808E-8
0.007300	12.010323	4.924865E-8
0.007350	11.648869	1.856324E-7
0.007400	14.053600	7.339528E-8
0.007450	12.380282	-8.735869E-8
0.007500	9.363205	1.207942E-7
0.007550	10.942971	1.371156E-7
0.007600	12.201681	3.638340E-9
0.007650	8.727472	1.124006E-8
0.007700	7.694139	1.632744E-7
0.007750	10.096744	7.630182E-8
0.007800	9.261148	-6.544786E-8
0.007850	5.774180	7.451318E-8
0.007900	6.677815	1.391278E-7
0.007950	8.557376	3.861919E-9
0.008000	5.831588	-7.193168E-8
0.008050	3.754290	1.214650E-7
0.008100	5.748666	8.882230E-8
0.008150	6.190916	-3.638247E-8
0.008200	2.604016	4.979819E-9
0.008250	2.229804	1.368920E-7
0.008300	4.511218	3.516311E-8
0.008350	3.233371	-1.155298E-7
0.008400	-0.006959	5.215519E-8
0.008450	1.028501	1.078266E-7
0.008500	2.797500	-2.386199E-8
0.008550	0.095098	-1.092695E-7
0.008600	-1.980074	8.792798E-8
0.008650	-0.083503	6.467567E-8
0.008700	0.573494	-5.963478E-8
0.008750	-2.900720	-3.906543E-8
0.008800	-3.683162	1.051436E-7
0.008850	-1.382612	2.085400E-8
0.008900	-2.145918	-1.144119E-7
0.008950	-5.649900	4.309079E-9
0.009000	-4.984398	8.502144E-8
0.009050	-2.943244	-4.063049E-8
0.009100	-5.286319	-1.665060E-7
0.009150	-7.784608	4.701285E-8
0.009200	-6.034743	3.963471E-8
0.009250	-5.086456	-8.713511E-8
0.009300	-8.535158	-7.282600E-8
0.009350	-9.496202	7.317170E-8
0.009400	-7.146747	-1.156510E-8
0.009450	-7.920685	-1.492903E-7
0.009500	-11.394903	-1.871965E-8
0.009550	-10.642226	4.969581E-8
0.009600	-8.701002	-8.132203E-8
0.009650	-11.248195	-1.709776E-7
0.009700	-13.450943	2.823213E-8
0.009750	-11.550116	-1.503999E-9
0.009800	-11.018565	-1.253673E-7
0.009850	-14.562949	-8.422857E-8
0.009900	-14.949918	4.410631E-8
0.009950	-14.271659	-1.570132E-8

