LabVIEW Measurement	
Writer_Version	2
Reader_Version	2
Separator	Tab
Decimal_Separator	.
Multi_Headings	Yes
X_Columns	One
Time_Pref	Relative
Operator	e014
Description	Hysteresis Loop Data
Date	2015/09/16
Time	10:37:30.8160710334777832031
***End_of_Header***	
	
Channels	4				
Samples	200	200	200	200	
Date	2015/09/16	2015/09/16	2015/09/16	2015/09/16	
Time	10:37:30.8160710334777832031	10:37:30.8160710334777832031	10:37:30.8160710334777832031	10:37:30.8160710334777832031	
Y_Unit_Label	V	V	C	C	
X_Dimension	Time	Time	Time	Time	
X0	0.0000000000000000E+0	0.0000000000000000E+0	0.0000000000000000E+0	0.0000000000000000E+0	
Delta_X	5.000000E-5	5.000000E-5	5.000000E-5	5.000000E-5	
***End_of_Header***					
X_Value	Applied Voltage	Voltage Error	Charge	Charge Error	Comment
0.000000	20.853824	0.096676	3.382166E-6	2.031356E-8	Source:  | Sample Length:  | Sample Rate:  | Sense Capacitance: 
5.000000E-5	20.525991	0.096359	3.307284E-6	2.004775E-8
0.000100	19.991525	0.093236	3.262523E-6	1.979623E-8
0.000150	19.426743	0.091126	3.211122E-6	1.947401E-8
0.000200	18.828691	0.088897	3.159377E-6	1.916095E-8
0.000250	18.213287	0.085509	3.104156E-6	1.875077E-8
0.000300	17.587091	0.082408	3.040361E-6	1.835862E-8
0.000350	16.952555	0.078729	2.980744E-6	1.796292E-8
0.000400	16.288115	0.075538	2.915480E-6	1.753185E-8
0.000450	15.612470	0.072419	2.843138E-6	1.708685E-8
0.000500	14.931612	0.069358	2.766960E-6	1.663347E-8
0.000550	14.214510	0.066040	2.686793E-6	1.614630E-8
0.000600	13.498602	0.062698	2.603156E-6	1.564478E-8
0.000650	12.770793	0.059394	2.509902E-6	1.508178E-8
0.000700	12.026110	0.055898	2.415131E-6	1.456154E-8
0.000750	11.274088	0.052344	2.314152E-6	1.392741E-8
0.000800	10.471769	0.048742	2.200509E-6	1.322614E-8
0.000850	9.711841	0.045125	2.088581E-6	1.255509E-8
0.000900	8.907329	0.041438	1.955127E-6	1.177647E-8
0.000950	8.129768	0.038079	1.827833E-6	1.101051E-8
0.001000	7.315570	0.034082	1.682454E-6	1.012527E-8
0.001050	6.498680	0.030457	1.530377E-6	9.210834E-9
0.001100	5.677685	0.026595	1.365546E-6	8.214621E-9
0.001150	4.850479	0.023498	1.195195E-6	7.405944E-9
0.001200	4.030048	0.019114	1.007336E-6	6.097897E-9
0.001250	3.180083	0.015789	8.090854E-7	5.033826E-9
0.001300	2.351313	0.011422	5.996361E-7	3.654256E-9
0.001350	1.506082	0.008893	3.853803E-7	2.671517E-9
0.001400	0.676335	0.005879	1.636990E-7	1.383379E-9
0.001450	-0.143640	0.005266	-5.251215E-8	2.100328E-9
0.001500	-0.997341	0.006160	-2.688327E-7	2.204245E-9
0.001550	-1.822962	0.009471	-4.655987E-7	3.012788E-9
0.001600	-2.654013	0.013146	-6.809513E-7	4.210651E-9
0.001650	-3.500504	0.016909	-8.824864E-7	5.445924E-9
0.001700	-4.326017	0.020411	-1.083680E-6	6.523932E-9
0.001750	-5.157307	0.024321	-1.273778E-6	7.782219E-9
0.001800	-5.977239	0.028165	-1.440767E-6	8.758145E-9
0.001850	-6.810505	0.031803	-1.609033E-6	9.715128E-9
0.001900	-7.625182	0.035569	-1.763705E-6	1.066577E-8
0.001950	-8.423984	0.039271	-1.901021E-6	1.143713E-8
0.002000	-9.222135	0.042983	-2.041282E-6	1.227334E-8
0.002050	-9.998048	0.047050	-2.164756E-6	1.319548E-8
0.002100	-10.767554	0.050054	-2.275433E-6	1.369729E-8
0.002150	-11.550743	0.053667	-2.391407E-6	1.438249E-8
0.002200	-12.287327	0.057261	-2.487783E-6	1.499044E-8
0.002250	-13.035725	0.060642	-2.583723E-6	1.554606E-8
0.002300	-13.757673	0.063949	-2.673784E-6	1.608402E-8
0.002350	-14.472932	0.067236	-2.759577E-6	1.659207E-8
0.002400	-15.165389	0.070490	-2.837729E-6	1.707323E-8
0.002450	-15.860104	0.073563	-2.912753E-6	1.750672E-8
0.002500	-16.526370	0.076701	-2.982839E-6	1.792816E-8
0.002550	-17.170356	0.079909	-3.048347E-6	1.840818E-8
0.002600	-17.818923	0.082768	-3.104854E-6	1.873523E-8
0.002650	-18.434112	0.085842	-3.164298E-6	1.912991E-8
0.002700	-19.044589	0.088936	-3.218387E-6	1.948164E-8
0.002750	-19.596670	0.091254	-3.272424E-6	1.986743E-8
0.002800	-20.172031	0.094169	-3.318319E-6	2.009151E-8
0.002850	-20.718704	0.096428	-3.361061E-6	2.022583E-8
0.002900	-21.244529	0.098862	-3.404140E-6	2.048066E-8
0.002950	-21.735044	0.101017	-3.445303E-6	2.076195E-8
0.003000	-22.195002	0.103075	-3.482243E-6	2.095993E-8
0.003050	-22.676113	0.105340	-3.511833E-6	2.119413E-8
0.003100	-23.084104	0.107479	-3.549897E-6	2.139559E-8
0.003150	-23.549123	0.109681	-3.575001E-6	2.169653E-8
0.003200	-23.891031	0.112097	-3.604241E-6	2.186436E-8
0.003250	-24.261322	0.113615	-3.629723E-6	2.192295E-8
0.003300	-24.631048	0.115217	-3.651290E-6	2.220047E-8
0.003350	-24.928132	0.117239	-3.672634E-6	2.237255E-8
0.003400	-25.223153	0.118320	-3.691621E-6	2.234427E-8
0.003450	-25.494546	0.119749	-3.709717E-6	2.249873E-8
0.003500	-25.748110	0.120408	-3.722665E-6	2.264090E-8
0.003550	-25.952964	0.121271	-3.739137E-6	2.273993E-8
0.003600	-26.138467	0.122424	-3.751358E-6	2.280750E-8
0.003650	-26.282710	0.123283	-3.759320E-6	2.289052E-8
0.003700	-26.388448	0.123696	-3.765935E-6	2.290495E-8
0.003750	-26.532886	0.123989	-3.766835E-6	2.292289E-8
0.003800	-26.639471	0.124516	-3.770558E-6	2.290820E-8
0.003850	-26.694892	0.125158	-3.780477E-6	2.296890E-8
0.003900	-26.715176	0.124972	-3.785952E-6	2.305589E-8
0.003950	-26.691982	0.125158	-3.778266E-6	2.294189E-8
0.004000	-26.723710	0.125053	-3.769375E-6	2.299102E-8
0.004050	-26.698475	0.125163	-3.769747E-6	2.289441E-8
0.004100	-26.575559	0.124538	-3.775353E-6	2.302428E-8
0.004150	-26.451969	0.123388	-3.763045E-6	2.278696E-8
0.004200	-26.329270	0.123643	-3.747526E-6	2.283331E-8
0.004250	-26.194627	0.122612	-3.735929E-6	2.268886E-8
0.004300	-26.060917	0.122184	-3.722720E-6	2.268312E-8
0.004350	-25.861840	0.120936	-3.711292E-6	2.259625E-8
0.004400	-25.612120	0.120005	-3.698460E-6	2.248501E-8
0.004450	-25.350586	0.118267	-3.682372E-6	2.233991E-8
0.004500	-25.071397	0.116989	-3.662156E-6	2.211588E-8
0.004550	-24.763454	0.115233	-3.638316E-6	2.198602E-8
0.004600	-24.419267	0.114437	-3.610473E-6	2.203534E-8
0.004650	-24.078293	0.112658	-3.588836E-6	2.186641E-8
0.004700	-23.680053	0.111685	-3.561575E-6	2.162271E-8
0.004750	-23.280336	0.108632	-3.531192E-6	2.142661E-8
0.004800	-22.865418	0.106642	-3.495804E-6	2.114316E-8
0.004850	-22.422398	0.105379	-3.462467E-6	2.109421E-8
0.004900	-21.941764	0.103069	-3.428048E-6	2.081600E-8
0.004950	-21.466365	0.100641	-3.387113E-6	2.056915E-8
0.005000	-20.947728	0.098375	-3.344526E-6	2.025192E-8
0.005050	-20.424856	0.095106	-3.300100E-6	1.994415E-8
0.005100	-19.871407	0.092549	-3.253180E-6	1.966498E-8
0.005150	-19.305232	0.090776	-3.201077E-6	1.935088E-8
0.005200	-18.705983	0.087875	-3.149795E-6	1.904628E-8
0.005250	-18.093856	0.084510	-3.093102E-6	1.865670E-8
0.005300	-17.464920	0.081552	-3.029301E-6	1.825079E-8
0.005350	-16.831532	0.078267	-2.962874E-6	1.784600E-8
0.005400	-16.173258	0.075501	-2.894510E-6	1.762459E-8
0.005450	-15.502431	0.072205	-2.825208E-6	1.707193E-8
0.005500	-14.784066	0.068965	-2.746951E-6	1.656890E-8
0.005550	-14.103619	0.065852	-2.663341E-6	1.612155E-8
0.005600	-13.357197	0.062196	-2.578742E-6	1.554407E-8
0.005650	-12.653773	0.058823	-2.485094E-6	1.495230E-8
0.005700	-11.897666	0.055663	-2.382565E-6	1.444946E-8
0.005750	-11.136107	0.052112	-2.278952E-6	1.370261E-8
0.005800	-10.339129	0.048282	-2.166151E-6	1.303081E-8
0.005850	-9.578244	0.044476	-2.051718E-6	1.234453E-8
0.005900	-8.787325	0.040786	-1.920560E-6	1.154018E-8
0.005950	-7.988827	0.037335	-1.783588E-6	1.072317E-8
0.006000	-7.186702	0.033611	-1.638823E-6	9.876830E-9
0.006050	-6.372742	0.030218	-1.483343E-6	8.990457E-9
0.006100	-5.554373	0.025916	-1.319391E-6	7.944334E-9
0.006150	-4.699369	0.022501	-1.135623E-6	7.040968E-9
0.006200	-3.907994	0.018913	-9.588326E-7	5.919507E-9
0.006250	-3.041654	0.014812	-7.541946E-7	4.649327E-9
0.006300	-2.220007	0.010837	-5.513806E-7	3.415396E-9
0.006350	-1.367435	0.008669	-3.380710E-7	2.462639E-9
0.006400	-0.537666	0.005393	-1.280942E-7	1.258185E-9
0.006450	0.278031	0.003299	7.582798E-8	1.640421E-9
0.006500	1.117225	0.007104	2.850341E-7	1.976078E-9
0.006550	1.957461	0.010008	4.924096E-7	3.258801E-9
0.006600	2.782930	0.014306	7.110144E-7	4.428481E-9
0.006650	3.635632	0.017170	9.169732E-7	5.637455E-9
0.006700	4.453847	0.021142	1.115314E-6	6.709670E-9
0.006750	5.294887	0.024796	1.306862E-6	7.921785E-9
0.006800	6.109497	0.029104	1.472937E-6	9.089016E-9
0.006850	6.924411	0.032266	1.634386E-6	9.927796E-9
0.006900	7.746101	0.035942	1.789654E-6	1.076976E-8
0.006950	8.558431	0.039777	1.928445E-6	1.159177E-8
0.007000	9.340684	0.043457	2.063376E-6	1.239925E-8
0.007050	10.130124	0.047356	2.191132E-6	1.322165E-8
0.007100	10.907186	0.050861	2.301784E-6	1.382669E-8
0.007150	11.681577	0.054294	2.410243E-6	1.448261E-8
0.007200	12.409885	0.057671	2.507305E-6	1.508173E-8
0.007250	13.156045	0.061153	2.602705E-6	1.566767E-8
0.007300	13.879597	0.064635	2.691862E-6	1.618535E-8
0.007350	14.592030	0.067665	2.772886E-6	1.667843E-8
0.007400	15.291890	0.071481	2.854186E-6	1.720084E-8
0.007450	15.966015	0.074145	2.925430E-6	1.763948E-8
0.007500	16.656232	0.077722	2.991594E-6	1.813906E-8
0.007550	17.293526	0.080927	3.056760E-6	1.848097E-8
0.007600	17.923415	0.083779	3.117342E-6	1.895936E-8
0.007650	18.534671	0.086882	3.174953E-6	1.931997E-8
0.007700	19.149162	0.089587	3.227850E-6	1.954109E-8
0.007750	19.710947	0.092387	3.278392E-6	1.978523E-8
0.007800	20.269693	0.094479	3.322755E-6	2.007505E-8
0.007850	20.810739	0.097141	3.367199E-6	2.043006E-8
0.007900	21.339450	0.100057	3.411296E-6	2.067031E-8
0.007950	21.857693	0.102473	3.446350E-6	2.091965E-8
0.008000	22.298995	0.104312	3.482953E-6	2.112113E-8
0.008050	22.762339	0.106328	3.518727E-6	2.127205E-8
0.008100	23.224945	0.109267	3.546666E-6	2.154188E-8
0.008150	23.640426	0.110936	3.573839E-6	2.170348E-8
0.008200	23.984047	0.111882	3.604045E-6	2.180256E-8
0.008250	24.348299	0.114270	3.631540E-6	2.207943E-8
0.008300	24.711638	0.115114	3.651395E-6	2.212045E-8
0.008350	25.025790	0.117802	3.675246E-6	2.246697E-8
0.008400	25.317942	0.118296	3.693973E-6	2.241951E-8
0.008450	25.567835	0.119589	3.713164E-6	2.255158E-8
0.008500	25.808085	0.120909	3.726476E-6	2.261274E-8
0.008550	26.005879	0.122361	3.737460E-6	2.269368E-8
0.008600	26.206236	0.122586	3.740580E-6	2.275964E-8
0.008650	26.399795	0.123166	3.748411E-6	2.277462E-8
0.008700	26.534525	0.124213	3.763282E-6	2.275565E-8
0.008750	26.665714	0.125409	3.772759E-6	2.295941E-8
0.008800	26.706172	0.125160	3.780261E-6	2.298418E-8
0.008850	26.737401	0.125409	3.772126E-6	2.299874E-8
0.008900	26.839924	0.125817	3.773344E-6	2.299477E-8
0.008950	26.852650	0.125989	3.781862E-6	2.302890E-8
0.009000	26.802333	0.125677	3.780402E-6	2.291929E-8
0.009050	26.739811	0.125387	3.765932E-6	2.295791E-8
0.009100	26.679483	0.124702	3.761386E-6	2.289220E-8
0.009150	26.607145	0.125173	3.761589E-6	2.286372E-8
0.009200	26.449830	0.123759	3.755484E-6	2.288806E-8
0.009250	26.268193	0.123470	3.741835E-6	2.276158E-8
0.009300	26.126037	0.122491	3.722357E-6	2.265443E-8
0.009350	25.943943	0.121178	3.706893E-6	2.264062E-8
0.009400	25.718374	0.121011	3.695112E-6	2.247248E-8
0.009450	25.463204	0.119245	3.680068E-6	2.225615E-8
0.009500	25.186818	0.118074	3.660257E-6	2.220432E-8
0.009550	24.867172	0.116236	3.636601E-6	2.208080E-8
0.009600	24.524203	0.115145	3.609625E-6	2.210109E-8
0.009650	24.177064	0.113059	3.589555E-6	2.183401E-8
0.009700	23.785971	0.111977	3.564642E-6	2.163538E-8
0.009750	23.396224	0.109162	3.533854E-6	2.143115E-8
0.009800	22.976508	0.107298	3.500304E-6	2.118872E-8
0.009850	22.530168	0.105911	3.468463E-6	2.113413E-8
0.009900	22.061807	0.103393	3.432747E-6	2.087688E-8
0.009950	21.576833	0.101281	3.393502E-6	2.059562E-8

