LabVIEW Measurement	
Writer_Version	2
Reader_Version	2
Separator	Tab
Decimal_Separator	.
Multi_Headings	Yes
X_Columns	One
Time_Pref	Relative
Operator	e014
Description	Hysteresis Loop Data
Date	2015/08/06
Time	11:04:17.3153004646301269531
***End_of_Header***	
	
Channels	2		
Samples	100	100	
Date	2015/08/06	2015/08/06	
Time	11:04:17.3153004646301269531	11:04:17.3153004646301269531	
Y_Unit_Label	V	V	
X_Dimension	Time	Time	
X0	0.0000000000000000E+0	0.0000000000000000E+0	
Delta_X	1.000000E-5	1.000000E-5	
***End_of_Header***			
X_Value	Applied Voltage	Sense Voltage	Comment
0.000000	-21.432724	-0.645841
1.000000E-5	-20.367494	-0.628744
2.000000E-5	-19.342662	-0.609674
3.000000E-5	-18.305073	-0.590275
4.000000E-5	-17.269610	-0.568904
5.000000E-5	-16.240526	-0.543915
6.000000E-5	-15.241209	-0.523530
7.000000E-5	-14.329066	-0.496569
8.000000E-5	-13.455196	-0.465333
9.000000E-5	-12.562189	-0.432125
1.000000E-4	-11.488456	-0.404835
0.000110	-10.155326	-0.378861
0.000120	-9.034816	-0.344666
0.000130	-8.194965	-0.299950
0.000140	-7.225416	-0.264111
0.000150	-5.909297	-0.225314
0.000160	-5.024796	-0.174679
0.000170	-3.893656	-0.132594
0.000180	-2.900720	-0.078672
0.000190	-1.795095	-0.026393
0.000200	-0.778770	0.024570
0.000210	0.269447	0.076190
0.000220	1.266635	0.124523
0.000230	2.344619	0.177130
0.000240	3.392836	0.223819
0.000250	4.453810	0.273138
0.000260	5.461629	0.317854
0.000270	6.545991	0.358296
0.000280	7.630353	0.397093
0.000290	8.701957	0.432932
0.000300	9.762931	0.467455
0.000310	10.834535	0.499677
0.000320	11.910392	0.529268
0.000330	12.988375	0.557216
0.000340	14.076988	0.581876
0.000350	15.148592	0.605220
0.000360	16.113886	0.630208
0.000370	17.079180	0.652566
0.000380	18.082745	0.674595
0.000390	19.122456	0.694652
0.000400	20.213195	0.713064
0.000410	21.367721	0.731806
0.000420	22.569022	0.750876
0.000430	23.708664	0.766986
0.000440	24.667579	0.785399
0.000450	25.403243	0.804469
0.000460	26.015588	0.794276
0.000470	24.875946	0.777837
0.000480	23.991448	0.760411
0.000490	23.070805	0.744300
0.000500	21.897144	0.728518
0.000510	20.736240	0.708790
0.000520	19.722044	0.689062
0.000530	18.778012	0.668348
0.000540	17.763816	0.646648
0.000550	16.677329	0.625605
0.000560	15.592968	0.602261
0.000570	14.527742	0.576944
0.000580	13.479526	0.550640
0.000590	12.437689	0.521706
0.000600	11.400104	0.491786
0.000610	10.358267	0.459564
0.000620	9.314303	0.425698
0.000630	8.280970	0.389860
0.000640	7.256142	0.352049
0.000650	6.250449	0.313908
0.000660	5.270271	0.274124
0.000670	4.313481	0.232696
0.000680	3.382205	0.190940
0.000690	2.470065	0.148525
0.000700	1.566430	0.105124
0.000710	0.660668	0.061066
0.000720	-0.264230	0.017007
0.000730	-1.208263	-0.027708
0.000740	-2.131035	-0.072096
0.000750	-3.045302	-0.117140
0.000760	-3.991462	-0.162514
0.000770	-4.978020	-0.207888
0.000780	-6.026238	-0.253590
0.000790	-7.142495	-0.299292
0.000800	-8.341673	-0.344666
0.000810	-9.625901	-0.388396
0.000820	-11.001555	-0.431796
0.000830	-12.462258	-0.472567
0.000840	-13.816651	-0.499857
0.000850	-14.856365	-0.526160
0.000860	-15.898206	-0.550491
0.000870	-16.948552	-0.573507
0.000880	-17.971258	-0.594550
0.000890	-18.996090	-0.615592
0.000900	-20.052815	-0.633676
0.000910	-21.137181	-0.652089
0.000920	-22.255567	-0.670172
0.000930	-23.305915	-0.687598
0.000940	-24.235068	-0.703709
0.000950	-25.225882	-0.717519
0.000960	-26.301744	-0.708970
0.000970	-25.266280	-0.696147
0.000980	-23.909758	-0.682666
0.000990	-23.032697	-0.677406

